EEG 1,EEG 2,EEG 3,EEG 4,EEG 5,EEG 6,EEG 7,EEG 8,Accelerometer X,Accelerometer Y,Accelerometer Z,Gyroscope X,Gyroscope Y,Gyroscope Z,Battery Level,Counter,Validation Indicator
328446.656,421595.750,105046.055,-32098.357,-175957.953,-35826.629,124859.711,206074.594,0.090,0.991,0.079,0.000,0.000,0.000,100.000,1.000,1.000
20134.184,11643.561,-1070.559,-2689.094,289.589,28370.445,5740.018,4424.662,0.098,1.002,0.071,0.000,0.000,0.000,100.000,2.000,1.000
0.000,-4802.407,0.000,0.000,-1271.278,1019.508,0.000,-3192.008,0.098,1.006,0.068,0.000,0.000,0.000,100.000,3.000,1.000
3.666,-4074.008,0.000,0.000,-3476.322,39.607,0.000,-2331.108,0.098,1.008,0.072,0.000,0.000,0.000,100.000,4.000,1.000
628.799,-3414.631,0.000,128.210,-3455.043,0.000,0.000,-1843.393,0.097,1.006,0.076,0.244,0.275,0.153,100.000,5.000,1.000
1435.697,-2896.965,0.000,213.057,-2843.500,0.000,0.000,-1424.343,0.094,1.009,0.073,8.026,8.606,5.615,100.000,6.000,1.000
218.064,-2520.651,0.000,-1525.104,-2390.564,-1.878,-4.828,-1466.632,0.093,1.010,0.076,1.923,2.075,1.709,100.000,7.000,1.000
2.593,-2209.336,-0.089,-1915.098,-2003.521,-125.974,-320.882,-1382.590,0.091,1.012,0.076,0.275,0.061,0.824,100.000,8.000,1.000
57.220,-1908.124,-85.384,-1576.424,-1674.146,-592.500,-1125.723,-1200.736,0.091,1.014,0.073,-0.214,-0.702,0.702,100.000,9.000,1.000
499.159,-1560.510,-803.858,-1253.039,-1353.264,-723.392,-1153.708,-967.831,0.091,1.013,0.072,-0.458,-1.251,0.610,100.000,10.000,1.000
-145.465,-1196.891,-985.444,-963.539,-1044.899,-575.692,-895.411,-728.488,0.096,1.012,0.071,-0.488,-1.740,0.610,100.000,11.000,1.000
-749.678,-926.078,-753.611,-769.705,-829.607,-432.193,-715.256,-551.641,0.099,1.010,0.072,-0.427,-1.984,0.458,100.000,12.000,1.000
-610.024,-790.984,-616.372,-716.776,-734.657,-348.061,-639.349,-466.079,0.101,1.011,0.070,-0.366,-2.136,0.366,100.000,13.000,1.000
-519.723,-781.775,-551.999,-780.702,-754.953,-356.108,-659.376,-467.509,0.103,1.010,0.068,-0.397,-2.289,0.244,100.000,14.000,1.000
-497.103,-828.534,-564.426,-922.591,-845.969,-421.017,-756.741,-543.773,0.103,1.010,0.063,-0.488,-2.289,0.122,100.000,15.000,1.000
-481.814,-714.541,-516.951,-701.487,-667.781,-393.570,-741.094,-509.352,0.104,1.011,0.058,-0.580,-2.197,-0.031,100.000,16.000,1.000
-401.527,-625.134,-386.864,-373.095,-532.329,-404.388,-640.333,-491.649,0.103,1.013,0.058,-0.458,-1.953,-0.153,100.000,17.000,1.000
-313.729,-518.024,-318.646,-381.053,-292.897,-198.573,-438.452,-440.061,0.102,1.013,0.058,-0.305,-1.709,-0.122,100.000,18.000,1.000
-236.213,-359.953,-266.254,-233.442,-240.773,-173.897,-218.868,-312.656,0.102,1.015,0.056,0.000,-1.373,0.031,100.000,19.000,1.000
-214.040,-290.662,-225.127,-208.318,-245.959,-205.815,-177.830,-177.562,0.102,1.014,0.058,0.305,-1.068,0.031,100.000,20.000,1.000
-207.603,-260.800,-211.358,-201.255,-227.898,-197.858,-172.645,-160.843,0.102,1.015,0.060,0.427,-0.702,0.183,100.000,21.000,1.000
-202.417,-252.307,-205.547,-195.622,-215.113,-182.033,-168.353,-155.300,0.104,1.015,0.066,0.366,-0.244,0.366,100.000,22.000,1.000
-197.500,-246.853,-200.182,-190.973,-208.139,-175.595,-164.688,-151.277,0.105,1.016,0.072,0.427,0.092,0.244,100.000,23.000,1.000
-193.298,-241.309,-195.533,-187.039,-202.864,-170.767,-161.290,-148.058,0.103,1.017,0.072,0.458,0.092,0.061,100.000,24.000,1.000
-188.828,-236.124,-191.242,-183.016,-197.500,-166.833,-158.340,-144.839,0.103,1.017,0.072,0.610,-0.092,-0.092,100.000,25.000,1.000
-185.162,-231.564,-187.218,-179.440,-193.030,-163.078,-155.747,-141.799,0.100,1.014,0.075,0.610,-0.275,-0.214,100.000,26.000,1.000
-182.033,-226.915,-184.089,-176.221,-188.738,-159.949,-152.975,-139.385,0.100,1.015,0.075,0.732,-0.549,-0.214,100.000,27.000,1.000
-178.546,-222.713,-180.692,-172.913,-184.983,-157.177,-150.740,-136.882,0.099,1.014,0.078,0.732,-0.671,-0.275,100.000,28.000,1.000
-175.327,-218.958,-177.205,-169.784,-181.228,-153.959,-148.863,-134.468,0.097,1.017,0.078,0.641,-0.793,-0.397,100.000,29.000,1.000
-172.377,-215.113,-174.254,-167.191,-177.562,-151.277,-147.164,-132.322,0.095,1.017,0.075,0.610,-0.977,-0.397,100.000,30.000,1.000
-169.605,-211.537,-171.393,-164.688,-174.612,-149.220,-145.555,-130.445,0.097,1.017,0.077,0.702,-1.038,-0.488,100.000,31.000,1.000
-167.459,-208.050,-169.069,-162.184,-171.304,-146.806,-144.035,-128.567,0.098,1.016,0.074,0.793,-1.190,-0.427,100.000,32.000,1.000
-165.314,-204.831,-166.655,-160.128,-168.622,-144.750,-142.425,-126.511,0.101,1.013,0.072,0.977,-1.343,-0.397,100.000,33.000,1.000
-163.257,-201.523,-164.330,-157.803,-165.939,-143.051,-140.905,-125.170,0.102,1.012,0.066,1.099,-1.434,-0.366,100.000,34.000,1.000
-161.022,-198.841,-162.184,-155.658,-163.257,-140.905,-139.564,-123.560,0.102,1.009,0.067,1.221,-1.526,-0.427,100.000,35.000,1.000
-159.055,-196.606,-160.307,-154.406,-161.022,-139.385,-138.491,-121.951,0.102,1.009,0.067,1.282,-1.465,-0.427,100.000,36.000,1.000
-157.177,-193.566,-158.429,-152.439,-158.519,-137.955,-137.329,-120.521,0.103,1.011,0.063,1.160,-1.343,-0.397,100.000,37.000,1.000
-155.568,-190.973,-156.730,-150.561,-156.552,-136.524,-136.256,-119.537,0.100,1.012,0.061,0.977,-1.251,-0.336,100.000,38.000,1.000
-153.780,-188.559,-155.032,-148.952,-154.495,-134.736,-134.915,-118.375,0.098,1.013,0.060,0.885,-1.038,-0.183,100.000,39.000,1.000
-152.081,-186.503,-153.512,-147.611,-152.528,-133.663,-134.021,-117.034,0.101,1.011,0.059,0.793,-0.885,-0.031,100.000,40.000,1.000
-150.561,-184.447,-152.171,-146.270,-150.830,-132.322,-133.753,-116.050,0.102,1.011,0.060,0.671,-0.641,0.061,100.000,41.000,1.000
-149.131,-182.122,-150.561,-144.929,-149.041,-130.981,-132.680,-115.067,0.103,1.014,0.058,0.641,-0.458,0.214,100.000,42.000,1.000
-147.879,-179.887,-149.041,-143.766,-147.700,-129.908,-131.875,-113.904,0.105,1.012,0.056,0.580,-0.244,0.397,100.000,43.000,1.000
-146.538,-178.278,-147.879,-142.515,-146.538,-128.835,-130.892,-112.921,0.105,1.009,0.054,0.488,-0.092,0.549,100.000,44.000,1.000
-145.376,-176.579,-146.806,-141.352,-145.197,-127.852,-130.177,-112.027,0.107,1.008,0.057,0.519,0.000,0.427,100.000,45.000,1.000
-144.392,-174.701,-145.644,-140.280,-143.766,-126.958,-129.461,-111.222,0.109,1.008,0.057,0.427,0.092,0.336,100.000,46.000,1.000
-143.409,-173.181,-144.392,-139.207,-142.336,-125.706,-128.835,-110.865,0.107,1.010,0.053,0.305,0.122,0.214,100.000,47.000,1.000
-142.068,-171.661,-143.230,-138.044,-141.084,-124.902,-128.031,-109.702,0.103,1.011,0.054,0.183,0.122,0.092,100.000,48.000,1.000
-141.174,-170.052,-142.604,-137.508,-140.280,-124.186,-127.405,-108.898,0.102,1.008,0.056,0.061,0.275,0.122,100.000,49.000,1.000
-140.369,-168.443,-141.621,-136.614,-139.117,-123.203,-126.869,-108.540,0.104,1.009,0.060,0.214,0.305,0.244,100.000,50.000,1.000
-139.833,-166.923,-140.727,-135.541,-137.776,-122.488,-126.243,-107.914,0.107,1.011,0.060,0.092,0.336,0.244,100.000,51.000,1.000
-138.670,-165.582,-139.833,-134.647,-136.703,-121.683,-125.796,-107.288,0.105,1.006,0.063,0.092,0.458,0.336,100.000,52.000,1.000
-137.955,-164.419,-139.117,-134.200,-136.167,-121.057,-125.259,-106.752,0.106,1.009,0.064,0.000,0.488,0.153,100.000,53.000,1.000
-137.419,-163.525,-138.313,-133.574,-135.452,-120.431,-124.812,-105.858,0.108,1.010,0.068,0.061,0.305,0.214,100.000,54.000,1.000
-136.346,-162.452,-137.419,-132.948,-134.289,-119.716,-124.365,-105.411,0.110,1.010,0.066,0.031,0.092,0.092,100.000,55.000,1.000
-135.720,-161.558,-136.703,-132.054,-133.395,-119.448,-123.829,-105.053,0.107,1.012,0.069,-0.031,-0.214,0.061,100.000,56.000,1.000
-135.094,-160.128,-136.167,-131.607,-132.680,-118.822,-123.739,-104.517,0.107,1.013,0.069,-0.061,-0.397,0.092,100.000,57.000,1.000
-134.468,-159.144,-135.630,-130.892,-131.965,-118.107,-123.024,-104.070,0.105,1.017,0.069,0.031,-0.641,-0.031,100.000,58.000,1.000
-133.753,-158.161,-135.094,-130.355,-131.249,-117.749,-122.577,-103.623,0.102,1.017,0.072,-0.031,-0.732,-0.092,100.000,59.000,1.000
-132.948,-157.356,-134.468,-129.998,-130.624,-117.302,-122.309,-103.354,0.103,1.021,0.072,0.031,-0.671,0.000,100.000,60.000,1.000
-132.591,-156.730,-133.753,-129.283,-130.355,-116.766,-122.130,-102.907,0.100,1.020,0.072,0.031,-0.610,0.122,100.000,61.000,1.000
-132.412,-155.836,-133.216,-128.478,-129.730,-116.408,-121.862,-102.550,0.098,1.019,0.068,0.153,-0.641,0.183,100.000,62.000,1.000
-131.875,-155.032,-132.680,-128.210,-128.925,-115.961,-121.593,-102.192,0.100,1.020,0.073,0.397,-0.580,0.214,100.000,63.000,1.000
-131.518,-154.048,-132.501,-127.941,-128.657,-115.603,-121.057,-101.745,0.098,1.020,0.074,0.458,-0.671,0.275,100.000,64.000,1.000
-131.160,-153.691,-131.965,-127.584,-127.852,-115.067,-121.057,-101.477,0.095,1.019,0.078,0.580,-0.824,0.275,100.000,65.000,1.000
-130.445,-152.975,-131.607,-127.047,-127.405,-114.620,-120.610,-101.477,0.095,1.017,0.073,0.854,-1.068,0.305,100.000,66.000,1.000
-129.998,-152.439,-131.071,-126.690,-127.047,-114.441,-120.342,-100.940,0.094,1.018,0.072,1.190,-1.312,0.458,100.000,67.000,1.000
-129.551,-151.724,-130.892,-126.421,-126.869,-114.083,-120.252,-100.762,0.095,1.017,0.072,1.556,-1.556,0.519,100.000,68.000,1.000
-129.283,-151.008,-130.445,-125.617,-126.243,-113.904,-120.074,-100.404,0.095,1.015,0.066,1.587,-1.770,0.671,100.000,69.000,1.000
-128.925,-150.383,-129.998,-125.617,-125.706,-113.636,-119.805,-100.046,0.098,1.013,0.063,1.740,-1.984,0.702,100.000,70.000,1.000
-128.835,-149.846,-129.730,-125.259,-125.527,-113.279,-119.448,-99.868,0.101,1.011,0.065,1.770,-2.167,0.824,100.000,71.000,1.000
-128.388,-149.667,-129.283,-124.902,-125.170,-112.832,-119.269,-99.599,0.105,1.007,0.062,1.648,-2.441,0.885,100.000,72.000,1.000
-127.941,-149.220,-128.835,-124.633,-124.902,-112.653,-118.911,-99.331,0.112,1.005,0.061,1.770,-2.625,0.793,100.000,73.000,1.000
-127.763,-148.416,-128.567,-124.365,-124.365,-112.385,-118.822,-99.152,0.112,1.004,0.056,1.526,-2.808,0.702,100.000,74.000,1.000
-127.405,-148.147,-128.388,-124.007,-123.918,-111.938,-118.822,-98.705,0.113,1.002,0.052,1.312,-2.838,0.610,100.000,75.000,1.000
-127.137,-147.790,-128.210,-123.560,-123.382,-111.669,-118.643,-98.705,0.114,1.001,0.052,1.129,-2.716,0.427,100.000,76.000,1.000
-126.869,-147.432,-127.852,-123.739,-123.292,-111.759,-118.375,-98.526,0.115,1.002,0.050,0.854,-2.502,0.275,100.000,77.000,1.000
-126.600,-146.806,-127.316,-123.650,-123.024,-111.491,-118.375,-98.258,0.113,1.004,0.055,0.610,-2.289,0.183,100.000,78.000,1.000
-126.511,-146.627,-127.316,-123.382,-122.935,-111.312,-118.196,-98.437,0.113,1.004,0.054,0.305,-1.862,0.031,100.000,79.000,1.000
-125.885,-146.180,-127.316,-122.845,-122.666,-111.133,-117.749,-98.526,0.114,1.004,0.055,0.031,-1.465,-0.214,100.000,80.000,1.000
-125.885,-145.823,-127.047,-122.666,-122.398,-111.133,-117.660,-97.990,0.112,1.006,0.056,-0.122,-1.160,-0.366,100.000,81.000,1.000
-125.885,-145.644,-126.690,-122.398,-122.041,-110.954,-117.481,-97.990,0.110,1.007,0.055,-0.305,-0.916,-0.275,100.000,82.000,1.000
-125.349,-145.376,-126.600,-122.219,-121.951,-110.686,-117.570,-97.811,0.109,1.010,0.060,-0.336,-0.702,-0.214,100.000,83.000,1.000
-125.170,-144.929,-126.332,-122.219,-121.862,-110.328,-117.660,-97.632,0.106,1.010,0.059,-0.397,-0.671,-0.153,100.000,84.000,1.000
-125.080,-144.571,-125.974,-121.951,-121.683,-110.149,-117.481,-97.454,0.105,1.009,0.062,-0.275,-0.580,-0.214,100.000,85.000,1.000
-124.723,-144.392,-125.796,-121.772,-121.236,-110.060,-117.213,-97.185,0.104,1.009,0.065,-0.153,-0.671,-0.214,100.000,86.000,1.000
-125.080,-144.124,-125.974,-121.772,-121.057,-109.971,-116.944,-97.185,0.104,1.010,0.069,-0.153,-0.641,-0.336,100.000,87.000,1.000
-124.723,-143.766,-125.706,-121.325,-120.878,-109.792,-117.034,-97.096,0.105,1.009,0.071,-0.153,-0.793,-0.427,100.000,88.000,1.000
-124.455,-143.409,-125.349,-121.236,-120.789,-109.613,-116.855,-96.917,0.105,1.011,0.070,-0.214,-0.824,-0.488,100.000,89.000,1.000
-124.186,-143.230,-125.349,-121.236,-120.610,-109.613,-116.855,-96.738,0.105,1.011,0.069,-0.061,-1.007,-0.488,100.000,90.000,1.000
-124.186,-143.230,-125.438,-121.057,-120.342,-109.613,-116.766,-96.917,0.107,1.010,0.069,0.031,-1.160,-0.519,100.000,91.000,1.000
-123.918,-143.051,-125.259,-120.878,-119.984,-109.345,-116.497,-96.917,0.108,1.009,0.065,0.061,-1.312,-0.732,100.000,92.000,1.000
-123.918,-143.141,-125.080,-120.789,-120.074,-109.255,-116.408,-96.560,0.109,1.012,0.064,0.183,-1.465,-0.854,100.000,93.000,1.000
-123.739,-142.694,-124.812,-120.610,-120.074,-109.077,-116.408,-96.381,0.109,1.014,0.063,0.092,-1.526,-0.916,100.000,94.000,1.000
-123.471,-142.515,-124.633,-120.521,-119.895,-109.077,-116.140,-96.291,0.109,1.015,0.061,0.122,-1.434,-0.916,100.000,95.000,1.000
-123.471,-142.515,-124.544,-120.252,-119.984,-108.898,-116.318,-96.291,0.109,1.014,0.064,0.244,-1.312,-0.916,100.000,96.000,1.000
-123.471,-142.068,-124.365,-120.342,-119.716,-108.808,-116.229,-96.470,0.110,1.011,0.066,0.336,-1.068,-0.946,100.000,97.000,1.000
-123.471,-141.799,-124.186,-120.252,-119.537,-108.898,-116.318,-96.113,0.107,1.011,0.063,0.275,-0.885,-0.854,100.000,98.000,1.000
-123.471,-141.799,-124.276,-120.252,-119.448,-108.808,-116.140,-96.113,0.105,1.010,0.062,0.183,-0.793,-0.946,100.000,99.000,1.000
-123.113,-141.442,-124.007,-120.074,-119.537,-108.540,-116.140,-96.113,0.105,1.011,0.067,-0.061,-0.793,-1.099,100.000,100.000,1.000
-123.113,-141.442,-124.007,-120.163,-119.269,-108.361,-116.140,-96.023,0.103,1.013,0.070,-0.214,-0.793,-1.099,100.000,101.000,1.000
-123.024,-141.352,-124.097,-120.163,-119.090,-108.540,-115.871,-95.934,0.098,1.014,0.076,-0.458,-0.854,-1.099,100.000,102.000,1.000
-123.024,-141.174,-124.007,-119.805,-119.001,-108.361,-115.961,-95.755,0.096,1.015,0.078,-0.305,-1.038,-0.977,100.000,103.000,1.000
-122.845,-141.174,-123.739,-119.716,-119.001,-108.093,-115.782,-95.576,0.094,1.016,0.079,-0.153,-1.312,-0.641,100.000,104.000,1.000
-122.577,-140.995,-123.739,-119.716,-118.911,-108.272,-115.603,-95.576,0.094,1.016,0.077,0.061,-1.587,-0.366,100.000,105.000,1.000
-122.309,-140.905,-123.560,-119.716,-118.643,-108.272,-115.782,-95.487,0.093,1.013,0.076,0.336,-2.106,-0.183,100.000,106.000,1.000
-122.398,-140.727,-123.471,-119.716,-118.464,-108.093,-115.693,-95.397,0.098,1.011,0.073,0.397,-2.533,0.031,100.000,107.000,1.000
-122.398,-140.637,-123.471,-119.358,-118.554,-107.914,-115.335,-95.576,0.099,1.010,0.070,0.244,-2.716,-0.031,100.000,108.000,1.000
-122.309,-140.369,-123.560,-119.180,-118.554,-107.825,-115.514,-95.755,0.101,1.010,0.071,0.183,-2.594,-0.031,100.000,109.000,1.000
-122.219,-140.280,-123.471,-119.090,-118.464,-107.825,-115.424,-95.665,0.101,1.008,0.070,-0.061,-2.655,-0.061,100.000,110.000,1.000
-122.219,-140.190,-123.203,-119.358,-118.196,-107.735,-115.424,-95.576,0.103,1.008,0.066,-0.366,-2.655,-0.275,100.000,111.000,1.000
-122.130,-140.011,-123.113,-119.180,-118.107,-107.825,-115.246,-95.397,0.105,1.009,0.065,-0.427,-2.533,-0.305,100.000,112.000,1.000
-122.219,-140.011,-123.024,-119.001,-118.107,-107.735,-115.335,-95.397,0.106,1.006,0.062,-0.641,-2.533,-0.427,100.000,113.000,1.000
-122.041,-140.011,-123.024,-118.911,-118.107,-107.467,-115.514,-95.129,0.109,1.007,0.058,-0.641,-2.533,-0.641,100.000,114.000,1.000
-121.951,-139.833,-123.113,-118.911,-117.749,-107.646,-115.246,-95.129,0.109,1.008,0.056,-0.793,-2.197,-0.702,100.000,115.000,1.000
-121.951,-139.564,-123.024,-119.001,-117.928,-107.825,-115.246,-95.308,0.109,1.010,0.061,-0.946,-2.075,-0.610,100.000,116.000,1.000
-122.041,-139.564,-122.935,-118.822,-117.749,-107.646,-115.067,-95.129,0.106,1.012,0.063,-0.977,-1.831,-0.702,100.000,117.000,1.000
-121.862,-139.385,-123.024,-118.643,-117.838,-107.378,-115.156,-95.129,0.105,1.013,0.060,-0.916,-1.709,-0.610,100.000,118.000,1.000
-121.862,-139.296,-122.845,-118.643,-117.928,-107.467,-115.246,-95.129,0.106,1.016,0.057,-0.854,-1.526,-0.397,100.000,119.000,1.000
-121.683,-139.475,-122.756,-118.643,-117.660,-107.557,-115.156,-95.129,0.105,1.016,0.060,-0.641,-1.373,-0.275,100.000,120.000,1.000
-121.772,-139.475,-122.666,-118.911,-117.749,-107.467,-114.888,-94.950,0.106,1.017,0.062,-0.610,-1.099,0.000,100.000,121.000,1.000
-121.951,-139.475,-122.488,-118.732,-117.660,-107.467,-114.888,-94.861,0.107,1.017,0.066,-0.397,-0.854,0.336,100.000,122.000,1.000
-121.772,-139.207,-122.488,-118.554,-117.660,-107.467,-114.977,-94.771,0.106,1.013,0.066,-0.183,-0.641,0.610,100.000,123.000,1.000
-121.772,-139.207,-122.666,-118.464,-117.660,-107.199,-115.246,-95.040,0.108,1.010,0.071,0.061,-0.427,0.671,100.000,124.000,1.000
-121.504,-139.117,-122.666,-118.554,-117.660,-107.378,-115.067,-94.950,0.109,1.009,0.070,0.122,-0.519,0.824,100.000,125.000,1.000
-121.325,-139.207,-122.666,-118.643,-117.481,-107.378,-114.977,-94.950,0.110,1.010,0.067,0.275,-0.519,0.793,100.000,126.000,1.000
-121.236,-139.117,-122.577,-118.643,-117.481,-107.020,-114.799,-94.861,0.109,1.010,0.069,0.397,-0.488,0.732,100.000,127.000,1.000
-121.325,-138.938,-122.398,-118.464,-117.570,-107.288,-114.888,-94.682,0.109,1.012,0.068,0.244,-0.519,0.732,100.000,128.000,1.000
-121.504,-139.117,-122.577,-118.196,-117.481,-107.467,-114.799,-94.593,0.108,1.010,0.073,0.031,-0.519,0.641,100.000,129.000,1.000
-121.415,-138.938,-122.577,-118.285,-117.570,-107.378,-114.799,-94.861,0.109,1.011,0.074,-0.153,-0.702,0.580,100.000,130.000,1.000
-121.415,-138.938,-122.398,-118.375,-117.481,-107.199,-114.799,-94.682,0.106,1.013,0.073,-0.244,-0.916,0.488,100.000,131.000,1.000
-121.504,-139.117,-122.398,-118.375,-117.302,-107.020,-114.799,-94.682,0.102,1.014,0.074,-0.183,-1.099,0.488,100.000,132.000,1.000
-121.415,-138.938,-122.488,-118.375,-117.213,-106.931,-114.977,-94.771,0.099,1.016,0.073,0.092,-1.373,0.549,100.000,133.000,1.000
-121.236,-138.938,-122.488,-118.196,-117.123,-107.199,-114.799,-94.771,0.098,1.017,0.073,0.305,-1.740,0.519,100.000,134.000,1.000
-121.146,-138.670,-122.130,-118.285,-117.123,-107.199,-114.620,-94.861,0.096,1.016,0.070,0.458,-1.953,0.397,100.000,135.000,1.000
-121.236,-138.581,-122.041,-118.196,-117.213,-106.931,-114.530,-94.503,0.098,1.014,0.070,0.610,-2.228,0.366,100.000,136.000,1.000
-121.146,-138.670,-122.130,-118.554,-117.034,-106.752,-114.530,-94.414,0.099,1.013,0.066,0.732,-2.258,0.427,100.000,137.000,1.000
-121.236,-138.670,-122.130,-118.375,-117.034,-106.931,-114.620,-94.682,0.098,1.010,0.063,0.946,-2.167,0.244,100.000,138.000,1.000
-121.325,-138.491,-122.130,-118.196,-117.213,-106.841,-114.620,-94.503,0.103,1.009,0.061,0.793,-1.862,0.092,100.000,139.000,1.000
-121.236,-138.313,-122.219,-118.375,-117.213,-106.931,-114.620,-94.503,0.104,1.008,0.060,0.763,-1.526,-0.214,100.000,140.000,1.000
-121.057,-138.313,-122.130,-118.107,-117.213,-106.931,-114.530,-94.503,0.106,1.009,0.059,0.793,-1.343,-0.671,100.000,141.000,1.000
-121.057,-138.491,-121.951,-118.017,-117.213,-106.931,-114.530,-94.682,0.108,1.006,0.060,0.671,-1.068,-0.977,100.000,142.000,1.000
-121.325,-138.223,-121.951,-118.107,-117.034,-107.110,-114.530,-94.503,0.112,1.008,0.059,0.580,-1.099,-1.221,100.000,143.000,1.000
-121.146,-138.491,-121.951,-118.017,-117.213,-106.931,-114.530,-94.503,0.117,1.009,0.061,0.488,-1.129,-1.465,100.000,144.000,1.000
-121.057,-138.402,-122.219,-118.375,-117.123,-106.752,-114.799,-94.682,0.118,1.011,0.064,0.458,-1.129,-1.556,100.000,145.000,1.000
-120.878,-138.581,-122.130,-118.196,-117.034,-106.931,-114.620,-94.503,0.116,1.013,0.066,0.397,-1.221,-1.678,100.000,146.000,1.000
-120.878,-138.670,-122.398,-118.107,-117.123,-106.841,-114.530,-94.414,0.114,1.014,0.066,0.427,-1.190,-1.678,100.000,147.000,1.000
-120.968,-138.223,-122.130,-118.107,-117.034,-106.663,-114.620,-94.146,0.116,1.014,0.066,0.549,-1.190,-1.617,100.000,148.000,1.000
-120.968,-138.134,-121.951,-117.928,-116.766,-106.752,-114.799,-94.324,0.117,1.013,0.061,0.763,-1.190,-1.587,100.000,149.000,1.000
-120.878,-138.134,-121.951,-117.928,-117.034,-106.841,-114.799,-94.414,0.117,1.010,0.062,0.916,-1.221,-1.495,100.000,150.000,1.000
-120.878,-138.223,-121.951,-117.660,-117.034,-106.752,-114.530,-94.503,0.116,1.008,0.062,1.068,-1.190,-1.617,100.000,151.000,1.000
-120.968,-138.223,-121.951,-117.928,-116.676,-106.841,-114.262,-94.503,0.116,1.008,0.065,0.977,-1.129,-1.587,100.000,152.000,1.000
-120.789,-138.044,-121.772,-117.928,-116.766,-106.931,-114.262,-94.414,0.113,1.008,0.065,0.977,-1.099,-1.556,100.000,153.000,1.000
-120.968,-138.313,-121.951,-118.017,-116.855,-106.752,-114.352,-94.414,0.106,1.007,0.063,0.885,-1.099,-1.526,100.000,154.000,1.000
-120.878,-138.223,-121.951,-117.928,-116.676,-106.931,-114.530,-94.324,0.104,1.004,0.061,0.946,-1.221,-1.465,100.000,155.000,1.000
-120.789,-137.955,-121.951,-117.838,-116.587,-106.931,-114.530,-94.503,0.100,1.005,0.062,0.854,-1.282,-1.282,100.000,156.000,1.000
-120.789,-137.955,-121.951,-118.107,-116.766,-106.841,-114.620,-94.861,0.096,1.004,0.063,0.824,-1.343,-1.099,100.000,157.000,1.000
-120.789,-138.044,-121.862,-118.017,-116.855,-106.663,-114.620,-94.414,0.091,1.003,0.062,0.824,-1.312,-0.732,100.000,158.000,1.000
-120.968,-138.313,-121.862,-118.017,-116.944,-106.573,-114.620,-94.235,0.092,1.002,0.061,0.732,-1.373,-0.366,100.000,159.000,1.000
-120.789,-138.223,-121.951,-117.838,-116.766,-106.573,-114.530,-94.056,0.091,1.001,0.064,0.793,-1.343,-0.092,100.000,160.000,1.000
-120.789,-137.866,-122.130,-117.749,-116.766,-106.573,-114.530,-94.056,0.092,1.001,0.064,0.763,-1.312,0.061,100.000,161.000,1.000
-120.878,-137.776,-121.951,-117.838,-116.944,-106.394,-114.709,-94.414,0.089,0.999,0.063,0.732,-1.373,0.183,100.000,162.000,1.000
-120.610,-137.955,-121.951,-118.107,-116.766,-106.573,-114.620,-94.503,0.094,0.998,0.062,0.458,-1.312,0.488,100.000,163.000,1.000
-120.610,-138.044,-121.951,-118.017,-116.676,-106.841,-114.620,-94.503,0.095,0.997,0.067,0.427,-1.221,0.488,100.000,164.000,1.000
-120.699,-138.044,-121.951,-117.749,-116.587,-106.752,-114.441,-94.503,0.100,0.996,0.066,0.183,-1.373,0.488,100.000,165.000,1.000
-120.789,-137.866,-121.951,-117.660,-116.587,-106.663,-114.352,-94.235,0.106,0.997,0.063,-0.031,-1.526,0.366,100.000,166.000,1.000
-120.610,-137.866,-121.862,-117.660,-116.587,-106.573,-114.441,-94.235,0.107,0.996,0.062,-0.366,-1.495,0.305,100.000,167.000,1.000
-120.878,-137.955,-121.772,-117.838,-116.855,-106.573,-114.620,-94.414,0.107,0.998,0.065,-0.641,-1.434,0.214,100.000,168.000,1.000
-120.789,-137.955,-121.862,-117.838,-116.766,-106.663,-114.352,-94.235,0.107,0.998,0.064,-1.007,-1.434,0.122,100.000,169.000,1.000
-120.878,-137.955,-121.951,-117.749,-116.676,-106.752,-114.262,-94.056,0.108,0.999,0.066,-1.343,-1.556,0.092,100.000,170.000,1.000
-120.968,-137.866,-121.772,-117.838,-116.766,-106.663,-113.904,-94.146,0.108,1.000,0.069,-1.465,-1.740,-0.061,100.000,171.000,1.000
-120.878,-138.134,-121.951,-117.749,-116.676,-106.573,-113.904,-94.324,0.112,1.006,0.075,-1.434,-1.831,-0.092,100.000,172.000,1.000
-120.789,-137.866,-121.862,-117.660,-116.676,-106.573,-113.904,-94.414,0.111,1.009,0.074,-1.465,-2.045,0.031,100.000,173.000,1.000
-120.789,-137.776,-121.504,-117.749,-116.855,-106.573,-114.083,-94.324,0.112,1.012,0.073,-1.282,-2.197,0.153,100.000,174.000,1.000
-120.789,-137.866,-121.504,-117.660,-116.766,-106.484,-113.994,-94.146,0.113,1.015,0.075,-1.343,-2.075,0.031,100.000,175.000,1.000
-120.521,-138.134,-121.683,-117.660,-116.944,-106.484,-113.636,-94.056,0.115,1.017,0.071,-1.343,-2.045,0.031,100.000,176.000,1.000
-120.610,-137.866,-121.772,-117.928,-117.034,-106.484,-113.457,-94.056,0.113,1.014,0.070,-1.221,-1.953,-0.092,100.000,177.000,1.000
-120.789,-138.044,-121.683,-117.660,-116.676,-106.484,-113.368,-94.146,0.112,1.012,0.068,-1.038,-1.953,-0.183,100.000,178.000,1.000
-120.968,-138.223,-121.772,-117.749,-116.766,-106.573,-113.010,-94.503,0.113,1.010,0.066,-0.763,-1.923,-0.183,100.000,179.000,1.000
-120.968,-138.313,-121.772,-117.749,-116.855,-106.573,-112.921,-94.503,0.113,1.010,0.065,-0.580,-1.953,-0.488,100.000,180.000,1.000
-120.789,-138.313,-121.772,-117.749,-116.944,-106.484,-112.742,-94.056,0.112,1.011,0.063,-0.366,-1.923,-0.702,100.000,181.000,1.000
-120.610,-138.491,-121.772,-117.660,-116.855,-106.484,-112.832,-94.146,0.112,1.011,0.059,-0.183,-1.770,-1.129,100.000,182.000,1.000
-120.610,-138.670,-121.683,-117.660,-116.944,-106.663,-112.653,-94.056,0.112,1.008,0.062,-0.183,-1.587,-1.434,100.000,183.000,1.000
-120.789,-138.760,-121.683,-117.749,-117.034,-106.663,-112.295,-94.056,0.109,1.007,0.060,-0.275,-1.434,-1.709,100.000,184.000,1.000
-120.699,-138.849,-121.593,-117.838,-117.034,-106.663,-112.027,-94.324,0.108,1.008,0.057,-0.366,-1.282,-2.045,100.000,185.000,1.000
-120.789,-138.938,-121.593,-117.838,-117.302,-106.573,-111.848,-94.056,0.106,1.009,0.055,-0.458,-1.160,-2.228,100.000,186.000,1.000
-120.610,-138.938,-121.683,-117.660,-117.213,-106.573,-111.759,-94.056,0.104,1.012,0.057,-0.610,-1.190,-2.472,100.000,187.000,1.000
-120.521,-138.849,-121.683,-117.481,-117.213,-106.573,-111.401,-94.235,0.102,1.014,0.062,-0.671,-1.221,-2.472,100.000,188.000,1.000
-120.521,-139.117,-121.683,-117.570,-117.213,-106.484,-111.401,-94.235,0.098,1.017,0.064,-0.702,-1.373,-2.411,100.000,189.000,1.000
-120.699,-139.296,-121.504,-117.660,-117.302,-106.573,-111.222,-93.967,0.097,1.020,0.062,-0.702,-1.495,-2.380,100.000,190.000,1.000
-120.789,-139.475,-121.415,-117.481,-117.749,-106.484,-110.775,-93.967,0.095,1.020,0.067,-0.641,-1.617,-2.228,100.000,191.000,1.000
-120.699,-139.564,-121.504,-117.391,-117.660,-106.484,-110.507,-94.324,0.097,1.021,0.071,-0.488,-1.831,-1.953,100.000,192.000,1.000
-120.699,-139.743,-121.683,-117.481,-117.660,-106.305,-110.328,-94.056,0.096,1.022,0.068,-0.305,-1.984,-1.648,100.000,193.000,1.000
-120.789,-139.654,-121.772,-117.570,-117.660,-106.394,-110.060,-93.967,0.097,1.021,0.072,-0.183,-2.136,-1.556,100.000,194.000,1.000
-120.699,-139.654,-121.683,-117.481,-117.570,-106.484,-109.971,-94.235,0.095,1.020,0.074,-0.031,-2.228,-1.404,100.000,195.000,1.000
-120.610,-139.833,-121.683,-117.391,-117.838,-106.484,-109.613,-94.235,0.094,1.021,0.072,0.000,-2.350,-1.404,100.000,196.000,1.000
-120.431,-140.011,-121.504,-117.213,-117.928,-106.663,-109.434,-94.146,0.094,1.021,0.071,0.153,-2.441,-1.373,100.000,197.000,1.000
-120.699,-140.190,-121.504,-117.123,-118.017,-106.663,-109.613,-94.146,0.096,1.020,0.068,0.244,-2.502,-1.221,100.000,198.000,1.000
-120.521,-140.369,-121.504,-117.213,-117.928,-106.394,-109.434,-94.146,0.094,1.018,0.067,0.305,-2.380,-1.068,100.000,199.000,1.000
-120.521,-140.458,-121.683,-116.944,-118.017,-106.394,-108.808,-93.967,0.096,1.018,0.061,0.519,-2.319,-0.977,100.000,200.000,1.000
-120.431,-140.458,-121.593,-117.213,-118.107,-106.484,-108.540,-93.967,0.098,1.013,0.060,0.519,-2.045,-0.793,100.000,201.000,1.000
-120.699,-140.548,-121.325,-117.391,-118.375,-106.484,-108.451,-94.056,0.102,1.011,0.060,0.488,-1.770,-0.702,100.000,202.000,1.000
-120.878,-140.816,-121.415,-117.213,-118.375,-106.484,-108.093,-94.146,0.105,1.010,0.057,0.427,-1.434,-0.702,100.000,203.000,1.000
-120.699,-140.727,-121.504,-116.855,-118.375,-106.394,-107.914,-94.056,0.108,1.008,0.053,0.183,-1.190,-0.854,100.000,204.000,1.000
-120.431,-140.995,-121.504,-116.855,-118.554,-106.394,-107.825,-94.414,0.106,1.008,0.054,-0.031,-0.916,-1.007,100.000,205.000,1.000
-120.610,-141.174,-121.504,-116.766,-118.554,-106.573,-107.467,-94.235,0.104,1.008,0.053,-0.366,-0.824,-1.007,100.000,206.000,1.000
-120.610,-141.174,-121.593,-116.676,-118.554,-106.663,-107.378,-93.967,0.104,1.009,0.054,-0.824,-0.610,-1.068,100.000,207.000,1.000
-120.431,-140.995,-121.593,-116.587,-118.554,-102.997,-105.143,-76.354,0.102,1.010,0.057,-0.854,-0.458,-0.854,100.000,208.000,1.000
-120.521,-141.084,-100.672,-115.693,-113.279,-42.021,-60.707,39.250,0.100,1.010,0.062,-1.007,-0.366,-0.671,100.000,209.000,1.000
-117.838,-135.720,-8.851,-83.774,-50.694,99.152,65.893,214.130,0.099,1.012,0.064,-1.068,-0.397,-0.519,100.000,210.000,1.000
-75.281,-81.450,124.812,19.133,85.920,257.313,234.693,381.947,0.098,1.016,0.069,-1.038,-0.397,-0.275,100.000,211.000,1.000
32.902,33.885,287.354,179.976,253.379,422.090,406.891,553.966,0.097,1.021,0.073,-0.977,-0.549,-0.153,100.000,212.000,1.000
192.404,195.444,458.568,356.644,422.001,593.305,580.162,729.561,0.097,1.023,0.075,-0.854,-0.793,0.000,100.000,213.000,1.000
363.797,367.194,632.197,532.508,591.874,766.754,754.953,907.123,0.096,1.023,0.075,-0.763,-1.099,0.061,100.000,214.000,1.000
539.035,542.969,810.564,712.842,765.681,945.032,934.482,1089.156,0.096,1.026,0.080,-0.549,-1.312,0.244,100.000,215.000,1.000
721.425,726.164,996.977,900.149,947.356,1130.551,1121.968,1279.056,0.095,1.030,0.082,-0.275,-1.526,0.580,100.000,216.000,1.000
907.839,913.203,1187.951,1091.927,1135.647,1321.078,1314.998,1473.338,0.098,1.030,0.081,0.061,-1.892,0.793,100.000,217.000,1.000
1095.951,1101.136,1381.606,1284.689,1329.124,1514.733,1511.514,1670.301,0.098,1.029,0.078,0.519,-1.953,1.038,100.000,218.000,1.000
1287.103,1291.484,1580.090,1480.848,1529.664,1712.859,1713.038,1871.109,0.098,1.027,0.078,0.977,-1.862,1.190,100.000,219.000,1.000
1492.918,1495.689,1794.488,1691.401,1746.923,1925.737,1930.207,2086.580,0.097,1.026,0.078,1.221,-1.709,1.221,100.000,220.000,1.000
1703.918,1704.008,2012.909,1906.425,1968.831,2143.354,2151.132,2305.448,0.096,1.023,0.073,1.282,-1.495,1.251,100.000,221.000,1.000
1913.578,1910.895,2228.022,2118.588,2186.805,2357.304,2368.391,2519.757,0.094,1.021,0.074,1.190,-1.160,1.190,100.000,222.000,1.000
2125.472,2120.823,2444.119,2331.913,2404.422,2571.702,2585.739,2734.781,0.093,1.020,0.075,1.129,-0.824,1.129,100.000,223.000,1.000
2344.788,2338.529,2666.653,2552.033,2627.492,2792.270,2808.542,2955.884,0.093,1.020,0.072,1.038,-0.610,0.916,100.000,224.000,1.000
2565.176,2557.755,2888.561,2772.779,2849.669,3013.552,3031.165,3177.167,0.093,1.020,0.068,1.221,-0.305,0.824,100.000,225.000,1.000
2780.378,2772.421,3104.657,2988.339,3065.229,3228.754,3247.619,3392.995,0.093,1.019,0.069,1.251,-0.122,0.702,100.000,226.000,1.000
2992.452,2984.941,3317.804,3201.128,3277.749,3441.007,3461.034,3605.694,0.089,1.015,0.068,1.343,0.000,0.580,100.000,227.000,1.000
3201.932,3195.137,3527.910,3410.966,3486.783,3650.398,3671.408,3815.711,0.087,1.013,0.069,1.312,-0.153,0.427,100.000,228.000,1.000
3420.890,3414.810,3747.315,3630.102,3704.668,3869.445,3890.902,4034.937,0.087,1.010,0.067,1.160,-0.305,0.305,100.000,229.000,1.000
3640.652,3634.930,3967.792,3850.401,3923.536,4089.297,4111.648,4255.862,0.086,1.007,0.068,0.885,-0.549,0.092,100.000,230.000,1.000
3855.140,3849.954,4183.084,4065.693,4137.666,4304.768,4327.119,4471.780,0.082,1.007,0.071,0.671,-0.977,-0.214,100.000,231.000,1.000
4077.137,4072.935,4406.244,4289.032,4359.932,4527.749,4550.637,4695.297,0.082,1.010,0.072,0.427,-1.282,-0.336,100.000,232.000,1.000
4308.791,4304.588,4638.613,4521.669,4591.138,4760.385,4783.363,4928.739,0.085,1.010,0.071,0.122,-1.648,-0.366,100.000,233.000,1.000
4541.070,4537.226,4871.429,4754.753,4823.507,4993.648,5016.715,5162.717,0.087,1.012,0.064,0.092,-1.831,-0.366,100.000,234.000,1.000
4764.945,4761.458,5096.288,4979.611,5047.561,5218.686,5241.931,5388.380,0.090,1.010,0.063,0.275,-2.136,-0.275,100.000,235.000,1.000
4989.356,4986.048,5321.414,5205.006,5272.151,5444.081,5467.684,5614.401,0.094,1.011,0.063,0.305,-2.441,-0.122,100.000,236.000,1.000
5215.109,5211.443,5547.972,5431.832,5498.172,5670.548,5694.688,5841.673,0.098,1.011,0.062,0.488,-2.594,-0.031,100.000,237.000,1.000
5435.855,5432.636,5769.790,5654.008,5719.901,5892.904,5917.222,6064.476,0.104,1.010,0.058,0.793,-2.838,0.092,100.000,238.000,1.000
5644.531,5641.313,5979.360,5863.667,5929.382,6102.563,6127.597,6274.939,0.110,1.009,0.052,0.732,-2.808,0.092,100.000,239.000,1.000
5853.118,5849.988,6189.109,6073.327,6139.041,6312.222,6337.703,6485.672,0.114,1.010,0.047,0.824,-2.502,0.000,100.000,240.000,1.000
6063.671,6060.542,6400.467,6284.685,6350.220,6523.581,6549.598,6697.924,0.116,1.008,0.045,0.946,-1.923,-0.031,100.000,241.000,1.000
6266.267,6262.959,6603.689,6488.086,6553.621,6726.892,6753.625,6901.683,0.115,1.009,0.046,0.946,-1.312,-0.244,100.000,242.000,1.000
6458.850,6455.273,6796.987,6681.294,6746.562,6920.458,6947.638,7095.249,0.114,1.010,0.047,1.038,-0.610,-0.092,100.000,243.000,1.000
6645.710,6641.776,6984.563,6868.781,6933.958,7107.944,7135.393,7283.808,0.112,1.011,0.051,1.038,0.122,-0.244,100.000,244.000,1.000
6827.028,6823.272,7166.596,7050.903,7116.170,7290.066,7317.872,7466.735,0.112,1.011,0.052,1.068,0.793,-0.244,100.000,245.000,1.000
7006.378,7002.891,7346.482,7231.058,7296.415,7470.043,7498.653,7647.426,0.111,1.010,0.054,1.160,1.221,-0.305,100.000,246.000,1.000
7181.169,7177.414,7521.541,7406.475,7471.205,7645.459,7674.159,7823.290,0.111,1.009,0.060,1.068,1.556,-0.336,100.000,247.000,1.000
7335.307,7330.836,7675.857,7560.612,7625.253,7799.955,7828.833,7977.964,0.112,1.008,0.066,1.160,1.648,-0.549,100.000,248.000,1.000
7483.722,7479.162,7824.631,7709.385,7774.474,7948.638,7978.143,8127.273,0.106,1.005,0.071,1.007,1.556,-0.549,100.000,249.000,1.000
7635.267,7631.154,7976.802,7861.466,7926.644,8100.988,8130.850,8279.712,0.101,1.009,0.075,0.793,1.312,-0.702,100.000,250.000,1.000
7781.269,7777.066,8123.339,8008.004,8073.361,8247.525,8277.478,8426.608,0.094,1.008,0.081,0.519,1.068,-0.671,100.000,251.000,1.000
7919.581,7915.468,8262.278,8147.122,8212.121,8386.464,8416.773,8565.726,0.089,1.007,0.082,0.519,0.641,-0.702,100.000,252.000,1.000
8065.314,8061.291,8408.548,8293.392,8357.854,8532.913,8563.312,8712.174,0.085,1.007,0.085,0.397,0.153,-0.549,100.000,253.000,1.000
8216.323,8212.031,8559.914,8444.847,8509.398,8684.368,8715.303,8863.987,0.084,1.007,0.082,0.427,-0.397,-0.488,100.000,254.000,1.000
8366.079,8361.698,8710.297,8595.051,8659.692,8834.661,8865.775,9014.638,0.085,1.006,0.080,0.641,-0.885,-0.427,100.000,255.000,1.000
8512.617,8507.879,8857.014,8741.679,8806.498,8981.289,9012.760,9161.980,0.087,1.004,0.077,0.641,-1.160,-0.397,100.000,256.000,1.000
8664.073,8659.155,9009.273,8893.402,8958.400,9133.370,9165.199,9314.688,0.087,1.005,0.074,0.519,-1.312,-0.366,100.000,257.000,1.000
8824.737,8819.820,9170.742,9054.603,9119.423,9295.019,9326.937,9476.335,0.089,1.004,0.070,0.580,-1.404,-0.427,100.000,258.000,1.000
8987.548,8982.451,9333.642,9217.502,9282.501,9458.186,9490.193,9639.682,0.094,1.005,0.069,0.610,-1.190,-0.366,100.000,259.000,1.000
9147.496,9142.400,9494.038,9377.987,9443.076,9618.671,9650.857,9800.347,0.098,1.006,0.062,0.671,-0.946,-0.397,100.000,260.000,1.000
9312.452,9307.356,9659.441,9543.659,9608.390,9784.343,9816.976,9966.375,0.101,1.007,0.062,0.702,-0.610,-0.427,100.000,261.000,1.000
9487.779,9482.684,9834.947,9719.165,9783.896,9960.296,9992.661,10142.686,0.103,1.005,0.059,0.763,-0.397,-0.488,100.000,262.000,1.000
9662.749,9657.832,10010.632,9894.850,9959.670,10135.802,10168.613,10318.728,0.104,1.007,0.058,0.610,0.000,-0.549,100.000,263.000,1.000
9835.483,9829.940,10183.813,10068.120,10132.672,10308.982,10342.331,10492.356,0.104,1.009,0.056,0.519,0.366,-0.458,100.000,264.000,1.000
10013.851,10008.307,10362.984,10246.845,10311.575,10487.707,10521.503,10671.528,0.102,1.011,0.057,0.427,0.641,-0.275,100.000,265.000,1.000
10198.565,10192.933,10547.968,10431.649,10496.559,10673.048,10706.396,10856.779,0.103,1.010,0.060,0.366,0.580,-0.031,100.000,266.000,1.000
10385.068,10379.614,10735.097,10618.778,10683.598,10860.177,10893.704,11044.266,0.104,1.011,0.062,0.275,0.641,0.122,100.000,267.000,1.000
10567.815,10561.825,10918.291,10801.615,10866.614,11043.282,11077.167,11227.818,0.103,1.010,0.066,0.153,0.641,0.214,100.000,268.000,1.000
10751.726,10745.825,11102.470,10985.973,11051.061,11227.818,11262.150,11412.533,0.105,1.010,0.066,0.153,0.549,0.305,100.000,269.000,1.000
10945.471,10939.570,11296.751,11179.807,11244.984,11421.921,11456.521,11607.083,0.102,1.009,0.066,-0.031,0.397,0.397,100.000,270.000,1.000
11138.411,11132.689,11490.317,11373.819,11438.551,11615.666,11650.445,11801.096,0.102,1.008,0.064,0.031,0.275,0.427,100.000,271.000,1.000
11329.295,11323.305,11681.737,11565.329,11629.971,11806.907,11842.223,11992.963,0.104,1.009,0.068,-0.031,-0.031,0.488,100.000,272.000,1.000
11518.659,11512.400,11871.190,11754.872,11819.514,11996.718,12032.123,12182.863,0.105,1.006,0.063,0.031,-0.244,0.580,100.000,273.000,1.000
11716.249,11709.722,12069.138,11952.462,12016.656,12194.486,12229.892,12380.811,0.106,1.007,0.065,-0.061,-0.519,0.610,100.000,274.000,1.000
11920.901,11914.464,12274.506,12157.740,12221.577,12399.943,12434.902,12586.357,0.110,1.007,0.061,-0.092,-0.732,0.641,100.000,275.000,1.000
12120.637,12114.288,12474.509,12357.833,12421.849,12599.947,12635.531,12787.255,0.114,1.006,0.063,-0.092,-0.824,0.732,100.000,276.000,1.000
12311.431,12304.547,12665.304,12548.807,12612.554,12791.188,12827.041,12978.675,0.117,1.004,0.062,-0.153,-1.038,0.610,100.000,277.000,1.000
12504.192,12497.397,12858.959,12742.193,12805.583,12984.844,13020.518,13171.973,0.117,1.003,0.059,-0.092,-1.221,0.580,100.000,278.000,1.000
12698.742,12692.126,13053.777,12936.922,13000.580,13179.751,13215.782,13367.417,0.118,1.005,0.059,-0.214,-1.343,0.397,100.000,279.000,1.000
12886.854,12879.344,13241.621,13124.945,13188.335,13367.863,13403.984,13555.976,0.116,1.007,0.056,-0.153,-1.434,0.183,100.000,280.000,1.000
13063.344,13055.744,13418.558,13302.328,13365.092,13545.068,13581.010,13733.181,0.114,1.006,0.056,-0.458,-1.404,-0.061,100.000,281.000,1.000
13240.459,13233.038,13596.388,13479.802,13542.565,13722.898,13758.841,13911.101,0.111,1.009,0.060,-0.610,-1.373,-0.214,100.000,282.000,1.000
13421.865,13414.534,13778.331,13661.565,13724.687,13904.663,13941.052,14092.954,0.109,1.012,0.062,-0.671,-1.099,-0.305,100.000,283.000,1.000
13602.289,13595.047,13959.022,13842.436,13905.558,14085.444,14122.280,14274.361,0.108,1.013,0.062,-0.671,-0.916,-0.336,100.000,284.000,1.000
13774.397,13767.155,14131.131,14014.455,14077.487,14257.821,14294.478,14447.096,0.109,1.016,0.068,-0.610,-0.946,-0.397,100.000,285.000,1.000
13945.433,13937.297,14301.988,14185.223,14248.254,14428.588,14465.334,14617.952,0.109,1.016,0.071,-0.580,-0.977,-0.397,100.000,286.000,1.000
14116.110,14107.527,14473.113,14356.079,14419.111,14599.534,14636.280,14789.167,0.107,1.017,0.073,-0.458,-1.099,-0.397,100.000,287.000,1.000
14285.358,14277.490,14643.344,14526.221,14588.984,14769.854,14806.690,14959.666,0.106,1.016,0.073,-0.214,-1.282,-0.427,100.000,288.000,1.000
14448.973,14441.016,14807.048,14690.104,14752.331,14933.291,14970.842,15123.459,0.107,1.017,0.073,-0.031,-1.465,-0.336,100.000,289.000,1.000
14610.353,14602.306,14968.517,14851.394,14913.621,15094.849,15132.489,15285.107,0.104,1.016,0.069,0.092,-1.678,-0.214,100.000,290.000,1.000
14772.537,14764.490,15131.237,15014.114,15076.342,15257.838,15295.121,15447.917,0.106,1.015,0.066,0.214,-1.984,-0.122,100.000,291.000,1.000
14929.625,14921.310,15288.415,15171.561,15233.520,15415.283,15452.566,15605.005,0.106,1.011,0.063,0.336,-2.228,-0.061,100.000,292.000,1.000
15080.275,15071.871,15439.781,15323.016,15384.975,15566.382,15604.021,15756.907,0.105,1.014,0.058,0.275,-2.167,0.000,100.000,293.000,1.000
15222.075,15213.761,15591.773,15475.008,15535.536,15717.479,15755.299,15908.452,0.107,1.012,0.059,0.183,-2.106,0.031,100.000,294.000,1.000
15357.705,15349.748,15747.967,15630.934,15689.853,15871.796,15902.462,16055.795,0.111,1.011,0.057,-0.061,-1.892,-0.214,100.000,295.000,1.000
15536.967,15528.294,15901.300,15784.267,15846.047,16028.169,16053.739,16206.893,0.111,1.011,0.059,-0.336,-1.709,-0.397,100.000,296.000,1.000
15690.121,15681.538,16031.834,15915.158,15976.401,16158.345,16199.473,16353.342,0.114,1.012,0.057,-0.397,-1.434,-0.519,100.000,297.000,1.000
15834.066,15825.304,16180.965,16063.842,16102.645,16284.498,16349.050,16503.277,0.115,1.013,0.058,-0.427,-1.190,-0.732,100.000,298.000,1.000
15999.826,15990.886,16360.226,16243.371,16295.316,16477.975,16525.004,16679.141,0.117,1.013,0.059,-0.549,-1.099,-0.854,100.000,299.000,1.000
16159.239,16150.299,16519.371,16402.516,16463.760,16646.508,16684.506,16838.553,0.117,1.015,0.057,-0.641,-1.129,-1.068,100.000,300.000,1.000
16309.890,16300.592,16668.055,16551.109,16614.678,16797.426,16835.424,16989.563,0.115,1.016,0.062,-0.549,-1.099,-1.160,100.000,301.000,1.000
16450.348,16440.961,16796.354,16678.693,16756.031,16938.867,16976.061,17130.557,0.111,1.021,0.065,-0.458,-0.977,-1.160,100.000,302.000,1.000
16589.287,16579.721,16930.375,16812.357,16902.838,17085.584,17123.314,17278.078,0.108,1.021,0.067,-0.336,-0.916,-1.160,100.000,303.000,1.000
16720.715,16710.076,17109.547,16991.887,17055.186,17238.203,17279.598,17434.184,0.107,1.022,0.068,-0.153,-0.824,-1.007,100.000,304.000,1.000
16887.549,16877.178,17268.064,17150.584,17209.145,17392.609,17433.020,17587.248,0.106,1.023,0.074,0.000,-0.763,-0.824,100.000,305.000,1.000
17053.488,17043.475,17415.406,17298.373,17358.633,17542.365,17580.811,17735.127,0.107,1.026,0.070,0.092,-0.763,-0.793,100.000,306.000,1.000
17204.049,17194.393,17565.969,17449.203,17509.285,17693.105,17731.729,17885.957,0.104,1.025,0.074,0.305,-0.793,-0.549,100.000,307.000,1.000
17359.527,17349.871,17721.984,17604.771,17664.674,17849.031,17887.119,18041.703,0.103,1.024,0.074,0.427,-0.824,-0.336,100.000,308.000,1.000
17515.186,17505.352,17877.910,17760.518,17820.420,18004.689,18042.865,18197.629,0.101,1.025,0.076,0.671,-0.977,-0.061,100.000,309.000,1.000
17660.650,17650.547,18023.375,17906.162,17965.797,18150.244,18188.777,18343.361,0.097,1.026,0.077,0.916,-1.190,0.214,100.000,310.000,1.000
17810.139,17799.590,18172.773,18055.830,18115.105,18299.732,18338.088,18493.209,0.098,1.025,0.073,1.190,-1.343,0.488,100.000,311.000,1.000
17974.648,17963.920,18337.641,18220.518,18279.973,18464.240,18502.686,18657.896,0.097,1.020,0.075,1.495,-1.587,0.702,100.000,312.000,1.000
18139.156,18128.518,18502.328,18385.115,18444.482,18629.197,18667.730,18822.584,0.099,1.015,0.073,1.709,-1.953,0.916,100.000,313.000,1.000
18290.523,18279.883,18653.783,18536.570,18595.490,18780.652,18819.365,18974.396,0.100,1.011,0.069,1.862,-2.136,1.038,100.000,314.000,1.000
18439.832,18429.014,18803.271,18685.971,18744.441,18929.961,18968.943,19123.885,0.099,1.009,0.069,1.770,-2.411,1.312,100.000,315.000,1.000
18598.709,18587.623,18962.148,18845.025,18903.586,19089.195,19127.998,19283.119,0.098,1.008,0.065,1.678,-2.594,1.160,100.000,316.000,1.000
18765.900,18754.365,19129.428,19012.217,19070.867,19256.834,19295.547,19450.758,0.097,1.011,0.066,1.404,-2.716,1.221,100.000,317.000,1.000
18930.676,18919.500,19294.920,19177.797,19236.270,19422.146,19460.859,19616.607,0.095,1.012,0.066,1.251,-2.716,1.129,100.000,318.000,1.000
19093.934,19082.758,19458.088,19341.234,19399.438,19585.494,19623.939,19780.043,0.095,1.011,0.065,1.068,-2.472,1.160,100.000,319.000,1.000
19258.801,19247.355,19622.688,19505.652,19563.857,19749.824,19788.715,19944.730,0.094,1.010,0.063,0.977,-2.380,1.007,100.000,320.000,1.000
19428.584,19416.693,19792.738,19675.525,19733.373,19919.875,19958.678,20114.604,0.098,1.009,0.058,0.824,-2.167,0.977,100.000,321.000,1.000
19598.814,19586.566,19963.328,19845.936,19903.246,20090.553,20129.178,20285.281,0.102,1.006,0.059,0.946,-2.075,0.824,100.000,322.000,1.000
19770.656,19758.764,20135.436,20018.045,20075.533,20262.482,20301.285,20457.568,0.104,1.006,0.056,0.946,-1.648,0.641,100.000,323.000,1.000
19944.910,19932.840,20309.869,20192.477,20249.877,20436.648,20475.986,20632.182,0.105,1.002,0.054,0.885,-1.282,0.244,100.000,324.000,1.000
20121.846,20109.598,20486.984,20369.504,20426.902,20614.121,20653.102,20809.117,0.107,1.003,0.054,0.641,-0.885,-0.183,100.000,325.000,1.000
20302.359,20290.379,20667.766,20550.463,20607.146,20794.902,20833.973,20989.898,0.107,1.003,0.058,0.488,-0.549,-0.458,100.000,326.000,1.000
20481.977,20469.549,20847.383,20730.260,20786.498,20974.520,21013.770,21170.053,0.106,1.002,0.058,0.336,-0.305,-0.977,100.000,327.000,1.000
20663.385,20650.688,21029.326,20911.936,20968.262,21156.375,21195.088,21351.908,0.106,1.001,0.056,0.397,-0.214,-1.343,100.000,328.000,1.000
20845.773,20833.168,21211.896,21094.594,21150.920,21338.764,21377.836,21534.654,0.107,1.001,0.056,0.458,-0.214,-1.404,100.000,329.000,1.000
21031.473,21018.777,21397.951,21280.471,21336.797,21524.820,21563.891,21720.891,0.107,1.001,0.058,0.549,-0.397,-1.434,100.000,330.000,1.000
21210.465,21197.680,21576.855,21459.105,21515.432,21703.545,21742.973,21899.973,0.108,1.000,0.056,0.641,-0.580,-1.282,100.000,331.000,1.000
21385.256,21372.561,21752.004,21634.523,21690.223,21878.604,21918.301,22075.389,0.109,1.000,0.055,0.580,-0.610,-1.251,100.000,332.000,1.000
21558.795,21545.385,21925.363,21808.420,21863.672,22052.322,22091.840,22249.018,0.108,1.000,0.057,0.488,-0.763,-1.038,100.000,333.000,1.000
21730.904,21717.492,22097.473,21980.527,22035.514,22224.430,22264.127,22421.395,0.110,1.000,0.054,0.397,-0.946,-0.824,100.000,334.000,1.000
21892.998,21879.498,22259.924,22142.801,22197.787,22386.883,22426.043,22583.936,0.115,1.002,0.059,0.366,-1.160,-0.671,100.000,335.000,1.000
22047.852,22034.262,22414.688,22297.654,22352.461,22541.824,22581.074,22738.877,0.112,1.000,0.059,0.397,-1.343,-0.427,100.000,336.000,1.000
22199.039,22185.092,22565.785,22448.752,22503.379,22693.102,22732.352,22890.154,0.112,1.005,0.058,0.214,-1.465,-0.305,100.000,337.000,1.000
22343.342,22329.482,22710.447,22593.234,22648.219,22837.584,22876.654,23034.814,0.111,1.005,0.060,0.000,-1.526,0.122,100.000,338.000,1.000
22482.102,22468.064,22849.295,22732.082,22786.889,22976.342,23015.949,23173.307,0.111,1.006,0.060,0.000,-1.465,0.244,100.000,339.000,1.000
22617.105,22603.068,22984.836,22867.266,22921.715,23111.615,23151.402,23308.938,0.110,1.005,0.063,0.031,-1.556,0.488,100.000,340.000,1.000
22747.729,22733.781,23115.818,22998.068,23052.518,23242.418,23281.936,23439.918,0.111,1.005,0.067,0.000,-1.526,0.519,100.000,341.000,1.000
22870.842,22856.805,23239.020,23121.451,23175.721,23365.441,23404.871,23563.479,0.107,1.005,0.070,-0.214,-1.495,0.641,100.000,342.000,1.000
22986.625,22972.320,23354.535,23236.965,23291.234,23481.225,23521.010,23679.350,0.103,1.006,0.072,-0.366,-1.526,0.641,100.000,343.000,1.000
23103.121,23088.816,23471.121,23353.998,23407.820,23597.990,23638.043,23796.025,0.097,1.004,0.073,-0.549,-1.587,0.641,100.000,344.000,1.000
23227.129,23212.645,23595.307,23478.094,23531.918,23722.176,23762.051,23919.766,0.096,1.003,0.073,-0.580,-1.587,0.641,100.000,345.000,1.000
23356.947,23342.195,23725.127,23608.449,23661.199,23852.264,23891.871,24049.941,0.095,1.003,0.074,-0.854,-1.617,0.488,100.000,346.000,1.000
23474.607,23460.123,23843.502,23726.377,23779.217,23970.279,24009.709,24168.139,0.094,1.002,0.070,-1.038,-1.434,0.305,100.000,347.000,1.000
23589.943,23575.459,23958.656,23841.266,23894.283,24085.258,24125.043,24283.383,0.091,1.005,0.071,-1.343,-1.190,0.092,100.000,348.000,1.000
23720.746,23706.082,24089.281,23972.158,24025.086,24216.061,24256.203,24414.365,0.088,1.006,0.070,-1.526,-1.007,0.031,100.000,349.000,1.000
23852.979,23838.404,24221.781,24104.838,24157.408,24348.471,24388.525,24546.598,0.089,1.007,0.070,-1.617,-0.885,-0.031,100.000,350.000,1.000
23990.664,23975.645,24359.648,24242.346,24294.828,24486.158,24525.945,24684.463,0.092,1.008,0.070,-1.526,-0.824,-0.092,100.000,351.000,1.000
24129.781,24114.672,24498.943,24381.553,24433.855,24625.186,24665.063,24823.938,0.094,1.011,0.066,-1.556,-0.671,0.092,100.000,352.000,1.000
24264.697,24249.945,24634.127,24516.824,24568.949,24760.549,24800.871,24959.211,0.097,1.011,0.066,-1.160,-0.702,0.092,100.000,353.000,1.000
24405.156,24390.135,24774.674,24657.641,24709.496,24901.275,24941.508,25099.848,0.097,1.010,0.061,-1.007,-0.641,0.244,100.000,354.000,1.000
24556.879,24541.680,24926.578,24809.453,24861.221,25053.088,25093.143,25251.840,0.099,1.009,0.059,-0.916,-0.549,0.183,100.000,355.000,1.000
24703.865,24688.486,25073.473,24956.439,25007.938,25200.072,25239.770,25398.824,0.103,1.010,0.058,-0.793,-0.458,0.092,100.000,356.000,1.000
24853.441,24838.242,25223.318,25106.195,25157.605,25349.650,25389.885,25548.939,0.104,1.013,0.055,-0.977,-0.275,0.092,100.000,357.000,1.000
25011.781,24996.225,25381.838,25264.893,25315.676,25508.348,25548.313,25707.547,0.105,1.014,0.056,-1.007,-0.092,0.000,100.000,358.000,1.000
25180.314,25164.848,25550.727,25433.516,25484.477,25677.059,25717.203,25876.258,0.108,1.014,0.057,-1.007,0.061,0.000,100.000,359.000,1.000
25347.416,25331.502,25717.828,25600.438,25651.041,25843.893,25884.215,26043.449,0.108,1.013,0.053,-0.793,0.244,-0.031,100.000,360.000,1.000
25509.957,25494.043,25880.818,25762.980,25813.674,26006.793,26046.936,26206.527,0.111,1.012,0.050,-0.702,0.366,0.061,100.000,361.000,1.000
25680.457,25664.631,26051.496,25933.746,25984.619,26177.561,26217.613,26377.385,0.114,1.015,0.054,-0.549,0.397,-0.031,100.000,362.000,1.000
25849.436,25833.344,26220.207,26102.994,26153.152,26346.359,26386.771,26546.631,0.118,1.016,0.060,-0.610,0.488,-0.031,100.000,363.000,1.000
26012.336,25995.795,26382.928,26265.895,26315.873,26509.260,26549.404,26709.264,0.118,1.015,0.062,-0.824,0.519,-0.153,100.000,364.000,1.000
26188.467,26172.375,26559.775,26442.563,26492.451,26685.838,26726.072,26885.842,0.114,1.012,0.062,-1.007,0.641,-0.488,100.000,365.000,1.000
26371.752,26355.480,26743.238,26625.936,26675.020,26869.123,26909.535,27069.305,0.112,1.016,0.068,-0.885,0.580,-0.793,100.000,366.000,1.000
26546.453,26529.822,26918.207,26800.727,26849.900,27044.092,27084.594,27244.453,0.105,1.020,0.070,-0.793,0.488,-0.793,100.000,367.000,1.000
26713.287,26696.656,27085.041,26967.471,27016.645,27211.016,27251.248,27411.645,0.102,1.021,0.073,-0.610,0.244,-0.854,100.000,368.000,1.000
26881.371,26864.742,27253.215,27135.645,27184.998,27379.279,27419.602,27579.998,0.098,1.019,0.077,-0.427,-0.092,-0.671,100.000,369.000,1.000
27054.105,27037.744,27426.486,27308.826,27358.000,27552.639,27592.961,27753.180,0.099,1.018,0.076,-0.092,-0.366,-0.519,100.000,370.000,1.000
27230.506,27213.877,27602.975,27485.404,27534.131,27729.039,27769.451,27929.668,0.099,1.020,0.081,0.275,-0.824,-0.427,100.000,371.000,1.000
27400.826,27383.750,27773.295,27655.725,27703.916,27899.092,27939.414,28099.988,0.103,1.019,0.081,0.397,-1.129,-0.122,100.000,372.000,1.000
27559.703,27542.357,27932.439,27814.602,27862.523,28058.146,28098.379,28258.955,0.104,1.016,0.080,0.641,-1.495,-0.122,100.000,373.000,1.000
27717.863,27700.340,28090.422,27973.031,28020.686,28215.949,28256.809,28417.205,0.107,1.014,0.079,0.824,-1.862,-0.061,100.000,374.000,1.000
27873.879,27856.443,28246.438,28128.867,28176.699,28371.875,28412.734,28573.488,0.109,1.010,0.074,0.946,-2.167,-0.214,100.000,375.000,1.000
28018.629,28001.373,28391.992,28274.332,28321.986,28517.340,28557.842,28719.133,0.113,1.007,0.071,0.916,-2.258,-0.366,100.000,376.000,1.000
28154.170,28137.004,28528.068,28410.141,28457.705,28653.418,28693.740,28854.941,0.113,1.006,0.063,0.793,-2.319,-0.488,100.000,377.000,1.000
28291.766,28274.422,28665.398,28547.471,28594.678,28790.658,28831.428,28992.449,0.115,1.007,0.054,0.580,-1.953,-0.763,100.000,378.000,1.000
28428.471,28410.857,28802.369,28684.354,28731.023,28927.004,28968.131,29129.332,0.114,1.007,0.055,0.397,-1.587,-1.129,100.000,379.000,1.000
28554.086,28536.385,28927.986,28810.148,28856.641,29052.799,29093.836,29254.680,0.114,1.008,0.054,0.122,-1.038,-1.404,100.000,380.000,1.000
28669.332,28651.719,29043.053,28925.752,28971.707,29168.402,29209.082,29370.104,0.114,1.009,0.057,-0.122,-0.488,-1.648,100.000,381.000,1.000
28790.568,28772.865,29164.469,29046.809,29093.121,29289.639,29330.586,29491.340,0.116,1.009,0.054,-0.305,0.183,-1.984,100.000,382.000,1.000
28916.096,28898.215,29290.084,29172.336,29218.471,29414.896,29456.383,29617.225,0.113,1.011,0.060,-0.336,0.610,-2.075,100.000,383.000,1.000
29035.543,29017.572,29409.711,29291.873,29337.828,29534.703,29575.740,29736.852,0.109,1.013,0.060,-0.214,0.854,-2.075,100.000,384.000,1.000
29147.033,29129.152,29521.381,29403.811,29449.408,29646.283,29687.141,29848.432,0.106,1.015,0.065,-0.153,1.190,-1.831,100.000,385.000,1.000
29257.719,29240.018,29632.066,29514.676,29560.094,29757.326,29798.006,29959.832,0.102,1.017,0.066,0.031,1.312,-1.678,100.000,386.000,1.000
29376.631,29358.480,29751.246,29633.766,29678.736,29876.326,29917.275,30078.922,0.099,1.015,0.068,0.305,1.343,-1.434,100.000,387.000,1.000
29505.020,29486.781,29879.902,29761.797,29806.947,30004.805,30045.664,30207.223,0.097,1.018,0.068,0.458,1.343,-1.007,100.000,388.000,1.000
29637.879,29619.549,30012.225,29894.654,29939.805,30137.574,30178.254,30340.170,0.100,1.015,0.070,0.580,1.251,-0.732,100.000,389.000,1.000
29757.594,29739.086,30132.119,30014.639,30059.611,30257.021,30298.148,30459.887,0.102,1.011,0.075,0.732,0.732,-0.427,100.000,390.000,1.000
29878.830,29860.502,30253.893,30136.232,30181.025,30378.348,30419.652,30581.568,0.104,1.012,0.071,0.793,0.275,-0.092,100.000,391.000,1.000
30018.484,30000.154,30393.814,30276.244,30320.857,30518.000,30559.574,30721.670,0.107,1.009,0.067,0.763,-0.153,0.183,100.000,392.000,1.000
30164.039,30145.441,30539.279,30422.066,30466.145,30663.555,30704.951,30866.867,0.108,1.005,0.064,0.763,-0.580,0.488,100.000,393.000,1.000
30317.729,30298.953,30692.971,30575.758,30620.104,30817.424,30858.730,31020.914,0.115,1.006,0.067,0.946,-1.190,0.488,100.000,394.000,1.000
30465.160,30446.564,30841.207,30723.727,30767.445,30965.125,31006.342,31168.973,0.118,1.003,0.065,0.946,-1.495,0.397,100.000,395.000,1.000
30593.729,30575.311,30970.043,30852.740,30896.371,31093.871,31135.445,31297.898,0.121,1.002,0.063,0.824,-1.495,0.458,100.000,396.000,1.000
30723.637,30705.219,31100.129,30982.916,31026.100,31224.047,31265.621,31427.807,0.119,1.002,0.057,0.671,-1.495,0.549,100.000,397.000,1.000
30874.645,30856.406,31251.316,31134.283,31177.197,31375.234,31416.809,31579.262,0.119,1.000,0.052,0.580,-1.404,0.519,100.000,398.000,1.000
31049.436,31030.570,31426.285,31308.805,31352.078,31550.025,31591.420,31754.141,0.120,0.999,0.051,0.366,-1.343,0.336,100.000,399.000,1.000
31202.500,31183.188,31579.262,31461.959,31504.607,31702.732,31744.486,31907.207,0.121,0.999,0.054,0.214,-1.129,0.061,100.000,400.000,1.000
31330.084,31310.951,31706.756,31589.543,31632.189,31830.049,31872.068,32034.879,0.120,0.999,0.056,0.061,-1.038,-0.183,100.000,401.000,1.000
31472.420,31453.197,31849.449,31732.146,31774.438,31972.742,32014.674,32177.484,0.115,1.003,0.057,-0.214,-1.007,-0.549,100.000,402.000,1.000
31621.104,31601.971,31998.400,31881.277,31923.299,32121.426,32163.447,32326.346,0.110,1.000,0.062,-0.549,-0.732,-0.793,100.000,403.000,1.000
31767.553,31748.330,32144.760,32027.459,32069.748,32267.785,32309.895,32472.705,0.103,1.002,0.064,-1.129,-0.641,-1.007,100.000,404.000,1.000
31919.723,31900.232,32297.109,32179.719,32221.830,32420.402,32462.154,32625.145,0.099,1.007,0.069,-1.312,-0.671,-1.312,100.000,405.000,1.000
32069.211,32050.258,32447.135,32329.564,32371.406,32569.980,32611.822,32775.258,0.095,1.013,0.072,-1.495,-0.763,-1.404,100.000,406.000,1.000
32217.984,32199.031,32595.818,32478.428,32519.822,32718.664,32761.043,32924.211,0.094,1.014,0.071,-1.343,-1.068,-1.526,100.000,407.000,1.000
32375.967,32356.744,32754.158,32636.857,32677.984,32876.469,32918.934,33082.641,0.093,1.013,0.074,-1.099,-1.343,-1.526,100.000,408.000,1.000
32542.711,32523.668,32921.082,32803.957,32844.816,33043.746,33086.039,33249.563,0.094,1.013,0.074,-1.099,-1.862,-1.434,100.000,409.000,1.000
32693.541,32674.766,33072.180,32954.965,32995.559,33195.293,33237.313,33400.840,0.093,1.011,0.071,-1.007,-2.197,-1.373,100.000,410.000,1.000
32842.582,32823.359,33221.133,33103.918,33144.332,33344.156,33386.086,33549.879,0.092,1.010,0.069,-1.099,-2.411,-1.465,100.000,411.000,1.000
33010.488,32990.730,33389.039,33271.824,33311.969,33511.613,33553.902,33717.430,0.093,1.010,0.064,-1.129,-2.625,-1.495,100.000,412.000,1.000
33183.938,33164.535,33562.844,33445.988,33485.863,33685.242,33727.801,33891.594,0.098,1.007,0.060,-1.129,-2.716,-1.709,100.000,413.000,1.000
33346.301,33326.809,33725.297,33608.621,33648.141,33847.516,33890.254,34054.316,0.102,1.006,0.057,-1.160,-2.594,-1.801,100.000,414.000,1.000
33500.348,33481.039,33879.973,33762.668,33802.188,34001.742,34044.301,34208.363,0.103,1.005,0.057,-1.404,-2.380,-1.862,100.000,415.000,1.000
33645.727,33626.414,34025.703,33908.402,33947.207,34147.477,34190.215,34353.918,0.105,1.007,0.056,-1.556,-2.289,-1.923,100.000,416.000,1.000
33794.320,33774.738,34174.211,34056.996,34095.891,34296.160,34338.809,34502.691,0.106,1.010,0.056,-1.709,-2.014,-1.984,100.000,417.000,1.000
33948.637,33928.875,34328.703,34211.223,34249.848,34450.297,34493.125,34657.098,0.109,1.011,0.052,-1.862,-1.465,-2.014,100.000,418.000,1.000
34102.328,34082.746,34482.754,34365.273,34403.629,34604.078,34647.082,34811.055,0.112,1.013,0.051,-1.892,-1.282,-1.862,100.000,419.000,1.000
34264.242,34244.750,34645.207,34527.637,34566.082,34766.262,34809.355,34973.418,0.113,1.016,0.052,-1.556,-1.038,-1.678,100.000,420.000,1.000
34415.699,34396.477,34796.570,34679.359,34717.625,34917.984,34960.633,35125.230,0.112,1.017,0.057,-1.465,-0.763,-1.312,100.000,421.000,1.000
34556.336,34536.664,34937.121,34819.906,34857.637,35058.535,35101.090,35265.867,0.109,1.021,0.064,-1.007,-0.336,-0.580,100.000,422.000,1.000
34696.438,34676.766,35077.488,34960.363,34997.648,35198.457,35241.461,35405.879,0.107,1.021,0.066,-0.610,-0.153,-0.122,100.000,423.000,1.000
34831.441,34812.129,35213.027,35095.727,35132.742,35333.816,35377.090,35541.152,0.104,1.021,0.068,-0.305,0.092,0.305,100.000,424.000,1.000
34964.477,34945.078,35346.516,35228.945,35265.957,35466.945,35510.309,35674.816,0.100,1.019,0.071,0.122,0.092,0.610,100.000,425.000,1.000
35085.891,35066.492,35467.660,35350.359,35387.371,35588.270,35631.273,35796.230,0.099,1.017,0.070,0.488,-0.031,0.946,100.000,426.000,1.000
35183.703,35164.301,35565.473,35447.992,35485.363,35686.352,35729.621,35894.309,0.095,1.013,0.072,0.580,-0.153,1.129,100.000,427.000,1.000
35281.695,35262.383,35663.820,35546.340,35582.906,35784.340,35827.523,35992.211,0.094,1.010,0.076,0.610,-0.305,1.221,100.000,428.000,1.000
35390.770,35371.547,35772.984,35655.773,35692.520,35893.328,35936.602,36101.734,0.094,1.007,0.073,0.427,-0.519,1.221,100.000,429.000,1.000
35500.652,35481.160,35882.688,35765.387,35802.043,36003.117,36046.301,36211.527,0.096,1.005,0.074,0.305,-0.732,1.251,100.000,430.000,1.000
35600.875,35581.207,35983.270,35865.699,35902.445,36103.434,36146.887,36312.020,0.102,1.001,0.071,0.183,-1.007,1.038,100.000,431.000,1.000
35697.793,35678.125,36080.457,35962.887,35999.363,36200.172,36243.891,36408.938,0.108,1.003,0.071,-0.122,-1.343,0.702,100.000,432.000,1.000
35802.938,35783.176,36185.598,36067.492,36104.148,36305.313,36348.945,36514.078,0.113,1.001,0.073,-0.305,-1.526,0.397,100.000,433.000,1.000
35911.836,35891.898,36294.676,36176.656,36213.227,36414.660,36458.199,36623.426,0.114,1.000,0.070,-0.427,-1.862,-0.122,100.000,434.000,1.000
36021.359,36001.422,36404.199,36286.809,36322.570,36524.363,36567.992,36732.949,0.115,1.002,0.068,-0.580,-2.075,-0.549,100.000,435.000,1.000
36130.703,36110.676,36513.633,36396.242,36431.824,36633.348,36676.980,36842.473,0.113,1.004,0.065,-0.702,-2.167,-1.038,100.000,436.000,1.000
36243.176,36223.059,36626.465,36508.715,36544.477,36746.090,36789.184,36954.945,0.110,1.007,0.058,-0.488,-2.197,-1.221,100.000,437.000,1.000
36363.160,36343.223,36746.539,36629.234,36664.551,36866.344,36909.348,37075.199,0.107,1.008,0.055,-0.549,-2.045,-1.282,100.000,438.000,1.000
36483.949,36464.012,36867.328,36750.023,36785.340,36986.863,37030.047,37196.254,0.105,1.010,0.056,-0.580,-1.801,-1.404,100.000,439.000,1.000
36602.414,36582.656,36986.148,36868.848,36903.984,37105.688,37148.871,37314.719,0.104,1.009,0.054,-0.458,-1.434,-1.343,100.000,440.000,1.000
36720.699,36700.672,37104.434,36987.133,37021.820,37223.793,37267.242,37433.004,0.100,1.008,0.056,-0.488,-1.221,-1.282,100.000,441.000,1.000
36840.059,36820.031,37223.973,37106.492,37141.270,37343.063,37386.691,37552.809,0.094,1.009,0.056,-0.580,-0.916,-1.221,100.000,442.000,1.000
36958.699,36938.762,37343.063,37225.313,37259.824,37461.883,37505.602,37671.543,0.089,1.009,0.059,-0.763,-0.824,-1.099,100.000,443.000,1.000
37080.117,37060.176,37464.207,37346.996,37381.328,37583.297,37627.020,37793.137,0.085,1.010,0.061,-1.038,-0.885,-0.885,100.000,444.000,1.000
37205.910,37185.973,37589.914,37472.789,37506.766,37709.094,37752.457,37918.930,0.082,1.010,0.062,-1.251,-0.977,-0.610,100.000,445.000,1.000
37333.852,37313.824,37718.301,37600.645,37634.797,37837.215,37880.488,38046.785,0.080,1.011,0.069,-1.221,-1.038,-0.305,100.000,446.000,1.000
37463.313,37443.195,37847.676,37730.105,37764.258,37966.586,38010.305,38176.336,0.080,1.012,0.070,-1.434,-1.282,0.061,100.000,447.000,1.000
37463.313,37443.195,37847.676,37730.105,37764.258,37966.586,38010.305,38176.336,0.080,1.012,0.070,-1.434,-1.282,0.061,100.000,448.000,0.000
37463.313,37443.195,37847.676,37730.105,37764.258,37966.586,38010.305,38176.336,0.080,1.012,0.070,-1.434,-1.282,0.061,100.000,449.000,0.000
37463.313,37443.195,37847.676,37730.105,37764.258,37966.586,38010.305,38176.336,0.080,1.012,0.070,-1.434,-1.282,0.061,100.000,450.000,0.000
37463.313,37443.195,37847.676,37730.105,37764.258,37966.586,38010.305,38176.336,0.080,1.012,0.070,-1.434,-1.282,0.061,100.000,451.000,0.000
37463.313,37443.195,37847.676,37730.105,37764.258,37966.586,38010.305,38176.336,0.080,1.012,0.070,-1.434,-1.282,0.061,100.000,452.000,0.000
37463.313,37443.195,37847.676,37730.105,37764.258,37966.586,38010.305,38176.336,0.080,1.012,0.070,-1.434,-1.282,0.061,100.000,453.000,0.000
37463.313,37443.195,37847.676,37730.105,37764.258,37966.586,38010.305,38176.336,0.080,1.012,0.070,-1.434,-1.282,0.061,100.000,454.000,0.000
37463.313,37443.195,37847.676,37730.105,37764.258,37966.586,38010.305,38176.336,0.080,1.012,0.070,-1.434,-1.282,0.061,100.000,455.000,0.000
37463.313,37443.195,37847.676,37730.105,37764.258,37966.586,38010.305,38176.336,0.080,1.012,0.070,-1.434,-1.282,0.061,100.000,456.000,0.000
37463.313,37443.195,37847.676,37730.105,37764.258,37966.586,38010.305,38176.336,0.080,1.012,0.070,-1.434,-1.282,0.061,100.000,457.000,0.000
37463.313,37443.195,37847.676,37730.105,37764.258,37966.586,38010.305,38176.336,0.080,1.012,0.070,-1.434,-1.282,0.061,100.000,458.000,0.000
37463.313,37443.195,37847.676,37730.105,37764.258,37966.586,38010.305,38176.336,0.080,1.012,0.070,-1.434,-1.282,0.061,100.000,459.000,0.000
37463.313,37443.195,37847.676,37730.105,37764.258,37966.586,38010.305,38176.336,0.080,1.012,0.070,-1.434,-1.282,0.061,100.000,460.000,0.000
37463.313,37443.195,37847.676,37730.105,37764.258,37966.586,38010.305,38176.336,0.080,1.012,0.070,-1.434,-1.282,0.061,100.000,461.000,0.000
37463.313,37443.195,37847.676,37730.105,37764.258,37966.586,38010.305,38176.336,0.080,1.012,0.070,-1.434,-1.282,0.061,100.000,462.000,0.000
37463.313,37443.195,37847.676,37730.105,37764.258,37966.586,38010.305,38176.336,0.080,1.012,0.070,-1.434,-1.282,0.061,100.000,463.000,0.000
37463.313,37443.195,37847.676,37730.105,37764.258,37966.586,38010.305,38176.336,0.080,1.012,0.070,-1.434,-1.282,0.061,100.000,464.000,0.000
37463.313,37443.195,37847.676,37730.105,37764.258,37966.586,38010.305,38176.336,0.080,1.012,0.070,-1.434,-1.282,0.061,100.000,465.000,0.000
37463.313,37443.195,37847.676,37730.105,37764.258,37966.586,38010.305,38176.336,0.080,1.012,0.070,-1.434,-1.282,0.061,100.000,466.000,0.000
40100.910,40080.793,40488.309,40371.363,40401.762,40606.328,40650.316,40817.238,0.109,1.030,0.079,-1.587,2.197,-0.610,100.000,467.000,1.000
40197.738,40177.621,40584.957,40467.926,40498.145,40702.797,40746.875,40914.066,0.106,1.032,0.085,-1.770,2.380,-0.610,100.000,468.000,1.000
40292.238,40272.035,40679.551,40562.516,40592.648,40797.031,40840.930,41008.480,0.105,1.034,0.095,-1.831,2.228,-0.427,100.000,469.000,1.000
40392.734,40372.082,40779.953,40663.012,40693.230,40897.613,40941.246,41109.152,0.107,1.034,0.101,-1.648,1.923,-0.336,100.000,470.000,1.000
40494.836,40474.094,40882.148,40765.023,40795.152,40999.629,41043.438,41211.434,0.108,1.034,0.104,-1.160,1.465,-0.092,100.000,471.000,1.000
40586.746,40566.449,40974.324,40857.293,40887.066,41091.719,41135.793,41303.699,0.111,1.035,0.105,-0.580,0.824,0.153,100.000,472.000,1.000
40667.125,40646.559,41054.703,40937.488,40967.441,41172.004,41215.992,41384.078,0.111,1.034,0.104,0.031,0.122,0.488,100.000,473.000,1.000
40754.207,40733.285,41141.605,41024.660,41054.613,41259.086,41302.895,41471.070,0.110,1.032,0.102,0.549,-0.610,0.763,100.000,474.000,1.000
40852.375,40831.813,41240.133,41123.098,41153.141,41357.613,41401.512,41569.598,0.107,1.031,0.101,1.038,-1.343,1.007,100.000,475.000,1.000
40953.227,40932.574,41340.984,41224.039,41253.723,41458.555,41502.184,41670.449,0.107,1.028,0.098,1.556,-1.923,1.190,100.000,476.000,1.000
41047.730,41026.988,41435.754,41318.723,41348.406,41553.059,41596.867,41765.398,0.107,1.025,0.095,1.770,-2.319,1.221,100.000,477.000,1.000
41146.078,41125.871,41534.641,41417.426,41447.199,41652.121,41695.750,41864.105,0.109,1.024,0.093,2.014,-2.533,1.221,100.000,478.000,1.000
41248.625,41228.152,41637.188,41519.977,41549.660,41754.582,41798.211,41966.652,0.107,1.022,0.083,2.075,-2.563,1.251,100.000,479.000,1.000
41358.598,41338.035,41746.711,41629.859,41659.094,41864.195,41907.645,42076.266,0.107,1.019,0.076,2.197,-2.350,1.221,100.000,480.000,1.000
41467.227,41446.484,41855.254,41738.309,41767.633,41972.555,42016.098,42184.719,0.106,1.017,0.072,2.258,-2.258,1.312,100.000,481.000,1.000
41574.781,41554.309,41963.434,41846.402,41875.816,42080.648,42124.457,42292.723,0.107,1.013,0.066,2.045,-1.953,1.404,100.000,482.000,1.000
41687.348,41666.781,42075.371,41958.875,41988.023,42192.855,42236.844,42405.285,0.107,1.010,0.065,1.862,-1.617,1.434,100.000,483.000,1.000
41803.398,41782.832,42191.512,42074.836,42103.984,42308.727,42352.625,42521.691,0.110,1.009,0.064,1.587,-1.221,1.465,100.000,484.000,1.000
41919.895,41899.332,42308.367,42191.332,42220.750,42425.848,42469.211,42638.547,0.111,1.009,0.066,1.343,-0.793,1.221,100.000,485.000,1.000
42035.141,42014.488,42424.059,42307.027,42335.906,42541.453,42584.637,42754.063,0.109,1.011,0.067,1.129,-0.458,1.160,100.000,486.000,1.000
42159.863,42139.211,42548.871,42431.930,42460.719,42665.996,42709.625,42878.605,0.112,1.011,0.066,1.099,-0.275,0.854,100.000,487.000,1.000
42286.195,42265.004,42674.848,42557.813,42586.512,42792.059,42835.422,43004.668,0.116,1.014,0.067,1.038,-0.275,0.854,100.000,488.000,1.000
42400.367,42379.805,42789.375,42672.523,42701.313,42906.320,42950.043,43119.289,0.121,1.015,0.068,0.885,-0.336,0.549,100.000,489.000,1.000
42517.668,42497.641,42906.859,42790.539,42818.613,43023.801,43067.789,43236.590,0.126,1.016,0.074,0.641,-0.549,0.305,100.000,490.000,1.000
42653.926,42633.363,43043.023,42926.527,42954.422,43159.699,43203.867,43372.578,0.126,1.021,0.075,0.580,-0.916,0.092,100.000,491.000,1.000
42797.422,42777.129,43186.789,43070.293,43098.188,43303.824,43347.457,43516.523,0.126,1.024,0.075,0.732,-1.312,-0.061,100.000,492.000,1.000
42936.363,42915.797,43325.730,43209.320,43236.949,43442.586,43486.215,43655.551,0.126,1.024,0.074,0.916,-1.709,-0.092,100.000,493.000,1.000
43070.383,43050.086,43459.930,43343.254,43371.148,43576.785,43620.414,43790.020,0.129,1.021,0.074,1.343,-2.167,-0.153,100.000,494.000,1.000
43208.695,43188.398,43598.512,43481.836,43509.820,43715.363,43758.906,43928.691,0.131,1.022,0.071,1.770,-2.594,-0.244,100.000,495.000,1.000
43349.066,43328.500,43738.699,43621.934,43649.652,43855.824,43899.098,44069.148,0.135,1.024,0.067,2.167,-2.777,-0.214,100.000,496.000,1.000
43494.172,43473.430,43883.449,43767.133,43794.223,44000.574,44044.023,44214.078,0.138,1.024,0.067,2.686,-2.625,-0.122,100.000,497.000,1.000
43631.145,43610.402,44020.602,43904.191,43931.371,44137.457,44181.176,44351.137,0.138,1.020,0.064,3.082,-2.472,-0.092,100.000,498.000,1.000
43763.020,43742.457,44152.477,44036.246,44063.426,44269.332,44313.496,44483.191,0.136,1.015,0.063,3.510,-2.136,-0.244,100.000,499.000,1.000
43894.270,43873.527,44283.727,44167.227,44194.496,44400.938,44444.570,44614.621,0.136,1.011,0.061,3.723,-1.984,-0.336,100.000,500.000,1.000
44025.695,44004.953,44415.422,44299.461,44326.016,44532.813,44575.996,44746.406,0.137,1.006,0.063,3.693,-1.892,-0.641,100.000,501.000,1.000
44157.750,44136.738,44547.566,44431.426,44457.980,44664.688,44707.961,44878.371,0.134,1.004,0.062,3.571,-1.831,-1.068,100.000,502.000,1.000
44291.859,44271.297,44681.766,44565.625,44592.715,44799.246,44842.250,45012.750,0.130,1.001,0.061,3.357,-2.045,-1.434,100.000,503.000,1.000
44427.223,44406.570,44817.039,44700.898,44728.258,44934.430,44977.613,45148.203,0.124,1.001,0.066,3.204,-2.319,-1.709,100.000,504.000,1.000
44561.422,44540.504,44951.684,44835.277,44862.727,45068.988,45111.992,45283.027,0.116,1.001,0.068,2.991,-2.716,-2.045,100.000,505.000,1.000
44689.543,44668.711,45080.254,44963.844,44990.668,45197.195,45240.289,45411.594,0.108,1.001,0.070,2.899,-3.082,-2.289,100.000,506.000,1.000
44819.988,44799.156,45210.520,45094.109,45120.664,45327.371,45370.555,45541.680,0.103,1.002,0.069,2.777,-3.601,-2.563,100.000,507.000,1.000
44952.848,44932.285,45343.289,45227.148,45253.523,45460.500,45503.504,45674.629,0.094,1.002,0.068,2.563,-4.089,-2.686,100.000,508.000,1.000
45083.828,45062.996,45474.090,45357.949,45384.234,45591.570,45634.398,45805.609,0.091,1.001,0.067,2.441,-4.456,-2.686,100.000,509.000,1.000
45212.754,45192.102,45603.281,45486.965,45513.520,45720.766,45763.770,45934.895,0.090,1.001,0.064,2.197,-4.608,-2.502,100.000,510.000,1.000
45343.109,45322.098,45733.371,45617.141,45643.426,45850.492,45893.766,46064.980,0.091,1.004,0.063,2.075,-4.822,-2.319,100.000,511.000,1.000
45468.727,45447.895,45859.344,45742.758,45769.133,45976.109,46019.293,46190.867,0.091,1.002,0.060,2.075,-4.791,-2.289,100.000,512.000,1.000
45585.668,45565.016,45976.379,45859.969,45886.258,46093.500,46136.773,46308.348,0.090,1.003,0.058,1.770,-4.456,-2.167,100.000,513.000,1.000
45689.113,45668.461,46079.734,45963.594,45989.699,46197.125,46240.488,46411.879,0.090,1.004,0.059,1.404,-4.120,-2.045,100.000,514.000,1.000
45782.992,45762.605,46173.969,46057.648,46083.578,46291.180,46334.363,46505.758,0.090,1.006,0.060,1.190,-3.723,-1.648,100.000,515.000,1.000
45878.211,45857.734,46268.738,46152.867,46178.707,46386.309,46429.223,46600.797,0.090,1.004,0.059,1.038,-3.296,-1.251,100.000,516.000,1.000
45976.469,45955.902,46366.996,46251.125,46276.965,46484.477,46527.215,46698.965,0.091,1.008,0.060,1.129,-3.143,-0.732,100.000,517.000,1.000
46063.191,46042.449,46453.633,46337.941,46363.777,46571.293,46614.207,46785.691,0.093,1.009,0.062,1.434,-2.777,-0.183,100.000,518.000,1.000
46137.848,46117.551,46528.824,46412.863,46438.793,46646.215,46689.309,46860.703,0.094,1.009,0.062,1.648,-2.594,0.580,100.000,519.000,1.000
46213.664,46193.102,46604.195,46488.770,46514.340,46721.676,46765.039,46936.430,0.097,1.006,0.061,1.801,-2.533,1.068,100.000,520.000,1.000
46285.816,46265.254,46676.613,46561.277,46586.758,46794.004,46837.277,47008.582,0.104,1.002,0.065,2.014,-2.258,1.434,100.000,521.000,1.000
46349.293,46328.730,46740.094,46624.488,46650.148,46857.395,46900.848,47072.328,0.108,0.999,0.064,1.923,-2.075,1.648,100.000,522.000,1.000
46409.020,46388.367,46799.906,46684.215,46709.695,46917.387,46960.391,47132.500,0.109,0.993,0.061,1.556,-1.923,1.465,100.000,523.000,1.000
46474.195,46453.098,46864.816,46748.945,46774.516,46982.207,47025.301,47197.410,0.106,0.992,0.062,1.129,-1.709,1.190,100.000,524.000,1.000
46548.316,46527.574,46939.203,46823.598,46848.723,47056.684,47099.598,47271.527,0.100,0.991,0.061,0.671,-1.526,0.946,100.000,525.000,1.000
46617.516,46596.773,47008.492,46892.711,46918.191,47126.332,47168.887,47340.996,0.096,0.995,0.063,0.275,-1.465,0.671,100.000,526.000,1.000
46671.430,46651.313,47062.852,46946.621,46972.461,47180.152,47222.980,47395.266,0.093,0.997,0.061,0.031,-1.404,0.580,100.000,527.000,1.000
46721.137,46700.574,47112.293,46996.602,47021.902,47229.328,47272.512,47444.797,0.090,0.999,0.055,-0.031,-1.251,0.366,100.000,528.000,1.000
46786.762,46766.109,47177.828,47062.582,47087.438,47294.773,47338.137,47510.332,0.088,1.002,0.053,-0.244,-1.068,0.366,100.000,529.000,1.000
46854.355,46833.969,47245.422,47130.086,47155.477,47362.723,47406.266,47578.281,0.087,1.005,0.054,-0.275,-1.007,0.397,100.000,530.000,1.000
46937.145,46916.852,47328.211,47212.875,47238.000,47445.781,47489.055,47660.984,0.086,1.006,0.055,-0.610,-0.916,0.244,100.000,531.000,1.000
47041.035,47020.563,47432.281,47316.590,47341.711,47549.672,47592.766,47765.055,0.085,1.006,0.055,-0.824,-0.946,0.031,100.000,532.000,1.000
47165.668,47145.105,47556.914,47441.492,47466.168,47674.395,47717.223,47889.867,0.086,1.006,0.055,-1.129,-1.099,0.000,100.000,533.000,1.000
47298.082,47277.609,47689.148,47573.813,47598.578,47806.809,47849.453,48022.188,0.083,1.008,0.055,-1.343,-1.343,-0.031,100.000,534.000,1.000
47431.387,47411.094,47822.543,47707.477,47732.242,47940.559,47983.207,48155.762,0.080,1.011,0.055,-1.282,-1.587,0.061,100.000,535.000,1.000
47565.496,47544.844,47956.207,47841.230,47865.727,48074.582,48117.316,48289.605,0.081,1.012,0.055,-1.099,-1.648,0.214,100.000,536.000,1.000
47711.680,47691.383,48102.832,47987.676,48012.355,48221.207,48263.586,48436.320,0.078,1.013,0.057,-0.885,-1.709,0.336,100.000,537.000,1.000
47867.066,47847.039,48258.672,48143.516,48167.832,48376.508,48419.336,48591.801,0.076,1.016,0.058,-0.671,-1.831,0.610,100.000,538.000,1.000
48024.246,48004.129,48415.668,48300.602,48325.188,48533.777,48576.602,48749.336,0.078,1.014,0.060,-0.458,-1.801,0.916,100.000,539.000,1.000
48181.332,48161.129,48573.113,48458.047,48482.723,48691.133,48733.602,48906.961,0.082,1.013,0.058,-0.366,-1.740,1.099,100.000,540.000,1.000
48346.289,48325.816,48737.891,48622.734,48647.500,48856.086,48898.555,49072.184,0.091,1.010,0.061,-0.153,-1.740,1.160,100.000,541.000,1.000
48515.000,48494.258,48906.602,48791.000,48815.586,49024.621,49066.820,49240.539,0.096,1.006,0.065,-0.092,-1.801,1.007,100.000,542.000,1.000
48678.613,48658.051,49070.039,48954.883,48978.934,49188.234,49230.883,49404.152,0.102,1.005,0.065,-0.275,-1.862,0.763,100.000,543.000,1.000
48678.613,48658.051,49070.039,48954.883,48978.934,49188.234,49230.883,49404.152,0.102,1.005,0.065,-0.275,-1.862,0.763,100.000,544.000,0.000
48678.613,48658.051,49070.039,48954.883,48978.934,49188.234,49230.883,49404.152,0.102,1.005,0.065,-0.275,-1.862,0.763,100.000,545.000,0.000
48678.613,48658.051,49070.039,48954.883,48978.934,49188.234,49230.883,49404.152,0.102,1.005,0.065,-0.275,-1.862,0.763,100.000,546.000,0.000
48678.613,48658.051,49070.039,48954.883,48978.934,49188.234,49230.883,49404.152,0.102,1.005,0.065,-0.275,-1.862,0.763,100.000,547.000,0.000
48678.613,48658.051,49070.039,48954.883,48978.934,49188.234,49230.883,49404.152,0.102,1.005,0.065,-0.275,-1.862,0.763,100.000,548.000,0.000
48678.613,48658.051,49070.039,48954.883,48978.934,49188.234,49230.883,49404.152,0.102,1.005,0.065,-0.275,-1.862,0.763,100.000,549.000,0.000
48678.613,48658.051,49070.039,48954.883,48978.934,49188.234,49230.883,49404.152,0.102,1.005,0.065,-0.275,-1.862,0.763,100.000,550.000,0.000
48678.613,48658.051,49070.039,48954.883,48978.934,49188.234,49230.883,49404.152,0.102,1.005,0.065,-0.275,-1.862,0.763,100.000,551.000,0.000
48678.613,48658.051,49070.039,48954.883,48978.934,49188.234,49230.883,49404.152,0.102,1.005,0.065,-0.275,-1.862,0.763,100.000,552.000,0.000
50146.945,50126.828,50538.727,50424.105,50447.801,50657.637,50699.750,50874.004,0.119,1.013,0.057,-0.427,-2.289,-0.580,100.000,553.000,1.000
50266.395,50246.367,50658.266,50543.914,50567.605,50777.266,50818.840,50993.539,0.119,1.012,0.058,-0.244,-2.075,-0.732,100.000,554.000,1.000
50377.973,50357.590,50770.023,50655.313,50679.098,50888.488,50930.508,51105.387,0.120,1.011,0.058,-0.092,-1.709,-0.916,100.000,555.000,1.000
50471.492,50451.285,50863.273,50748.656,50772.527,50981.738,51024.297,51198.461,0.121,1.009,0.059,0.153,-1.373,-1.038,100.000,556.000,1.000
50557.770,50537.207,50949.375,50834.844,50858.625,51068.195,51110.305,51284.828,0.121,1.007,0.059,0.214,-0.885,-1.312,100.000,557.000,1.000
50642.977,50622.590,51034.668,50920.406,50943.832,51153.758,51195.602,51370.480,0.118,1.007,0.058,0.336,-0.366,-1.556,100.000,558.000,1.000
50727.195,50707.258,51118.977,51004.539,51028.051,51238.070,51279.730,51454.703,0.115,1.006,0.055,0.336,0.092,-1.709,100.000,559.000,1.000
50803.371,50783.254,51195.242,51080.891,51104.406,51314.422,51356.086,51531.414,0.112,1.006,0.058,0.183,0.641,-2.045,100.000,560.000,1.000
50870.250,50850.043,51262.031,51148.035,51171.461,51381.477,51422.871,51598.469,0.110,1.003,0.058,0.214,1.129,-2.289,100.000,561.000,1.000
50934.891,50914.863,51326.672,51212.410,51235.922,51445.941,51487.691,51663.109,0.110,1.004,0.062,0.092,1.495,-2.594,100.000,562.000,1.000
50994.973,50975.211,51386.930,51272.488,51296.184,51506.289,51548.043,51723.191,0.106,1.005,0.064,-0.153,1.831,-2.716,100.000,563.000,1.000
51048.527,51028.230,51440.219,51325.867,51349.828,51559.574,51601.598,51776.297,0.101,1.006,0.064,-0.427,2.075,-2.808,100.000,564.000,1.000
51096.539,51076.063,51488.141,51374.055,51397.570,51607.320,51649.250,51824.668,0.097,1.009,0.068,-0.549,2.167,-2.991,100.000,565.000,1.000
51151.523,51131.676,51543.035,51429.398,51452.914,51662.750,51704.414,51880.012,0.093,1.013,0.070,-0.458,2.045,-2.899,100.000,566.000,1.000
51219.383,51199.445,51610.984,51497.082,51520.684,51730.699,51772.273,51947.961,0.091,1.014,0.075,-0.366,1.862,-2.686,100.000,567.000,1.000
51292.875,51273.207,51684.566,51570.750,51593.820,51804.016,51845.770,52021.273,0.088,1.015,0.078,-0.214,1.617,-2.350,100.000,568.000,1.000
51364.848,51345.000,51756.629,51642.637,51665.883,51876.078,51918.188,52093.246,0.088,1.017,0.080,-0.153,1.160,-2.045,100.000,569.000,1.000
51435.926,51416.078,51827.797,51713.891,51737.051,51947.156,51989.535,52164.504,0.087,1.016,0.083,-0.092,0.702,-1.556,100.000,570.000,1.000
51509.418,51490.016,51901.738,51787.563,51810.809,52021.184,52063.383,52238.621,0.087,1.017,0.084,-0.031,0.214,-1.129,100.000,571.000,1.000
51598.734,51578.977,51990.605,51876.434,51899.770,52110.145,52151.898,52327.582,0.088,1.015,0.079,-0.061,-0.336,-0.763,100.000,572.000,1.000
51698.246,51678.219,52089.938,51975.945,51999.012,52209.566,52251.316,52426.555,0.092,1.013,0.077,0.183,-0.854,-0.458,100.000,573.000,1.000
51809.379,51789.801,52201.340,52087.258,52110.590,52321.055,52362.898,52538.313,0.092,1.010,0.076,0.275,-1.343,-0.214,100.000,574.000,1.000
51926.324,51906.297,52318.016,52204.379,52227.805,52438.000,52479.039,52655.258,0.096,1.012,0.072,0.275,-1.831,0.000,100.000,575.000,1.000
52042.641,52022.527,52434.602,52320.875,52344.031,52554.406,52595.355,52771.578,0.100,1.011,0.068,0.092,-2.167,0.122,100.000,576.000,1.000
52159.406,52139.738,52551.457,52438.000,52461.156,52671.262,52712.656,52888.879,0.102,1.007,0.067,0.000,-2.289,0.244,100.000,577.000,1.000
52292.266,52272.953,52684.672,52571.039,52594.016,52804.566,52845.875,53022.184,0.105,1.008,0.061,0.061,-2.319,0.397,100.000,578.000,1.000
52436.480,52416.988,52828.441,52714.984,52738.141,52948.961,52990.000,53166.129,0.107,1.006,0.056,0.031,-2.502,0.244,100.000,579.000,1.000
52581.410,52561.738,52973.277,52859.730,52882.977,53093.441,53134.570,53311.059,0.107,1.007,0.057,0.092,-2.655,0.366,100.000,580.000,1.000
52725.891,52706.578,53118.297,53004.480,53027.461,53238.191,53279.230,53455.898,0.107,1.007,0.054,0.122,-2.655,0.427,100.000,581.000,1.000
52871.715,52852.133,53263.672,53150.035,53172.926,53384.105,53424.875,53601.723,0.106,1.005,0.051,0.122,-2.533,0.427,100.000,582.000,1.000
53027.102,53007.434,53418.793,53305.246,53328.402,53539.492,53580.441,53757.109,0.105,1.005,0.047,0.092,-2.319,0.427,100.000,583.000,1.000
53179.453,53160.141,53571.859,53457.688,53481.023,53692.289,53733.238,53909.727,0.104,1.004,0.043,0.031,-1.923,0.366,100.000,584.000,1.000
53325.098,53305.875,53717.414,53603.598,53626.664,53837.934,53878.793,54055.730,0.105,1.003,0.044,-0.092,-1.465,0.214,100.000,585.000,1.000
53469.844,53450.711,53861.984,53748.168,53771.594,53982.414,54023.453,54200.480,0.106,1.002,0.047,-0.153,-0.977,0.031,100.000,586.000,1.000
53619.691,53600.648,54012.098,53898.195,53921.172,54132.531,54173.301,54350.594,0.110,1.005,0.047,-0.305,-0.488,-0.183,100.000,587.000,1.000
53770.520,53751.477,54162.840,54049.293,54072.359,54283.719,54324.398,54501.512,0.110,1.004,0.047,-0.397,0.000,-0.366,100.000,588.000,1.000
53920.188,53901.055,54312.148,54198.781,54221.668,54433.027,54473.707,54650.824,0.114,1.004,0.052,-0.610,0.305,-0.610,100.000,589.000,1.000
54058.234,54039.012,54450.016,54337.004,54359.715,54570.895,54611.664,54788.777,0.115,1.001,0.052,-0.824,0.458,-0.793,100.000,590.000,1.000
54194.848,54176.250,54587.523,54474.242,54497.043,54708.402,54748.723,54926.645,0.115,1.001,0.055,-0.977,0.519,-1.007,100.000,591.000,1.000
54335.215,54316.531,54727.625,54614.434,54637.500,54848.590,54888.824,55067.012,0.119,1.002,0.062,-1.160,0.336,-1.221,100.000,592.000,1.000
54474.602,54456.094,54866.563,54753.820,54776.977,54988.066,55028.031,55206.664,0.120,1.002,0.064,-1.312,0.153,-1.343,100.000,593.000,1.000
54607.371,54588.684,54999.332,54886.590,54909.656,55121.016,55161.066,55339.344,0.118,1.006,0.069,-1.495,-0.122,-1.587,100.000,594.000,1.000
54741.750,54723.152,55133.977,55021.145,55044.035,55255.391,55295.445,55474.082,0.119,1.010,0.068,-1.678,-0.397,-1.801,100.000,595.000,1.000
54875.234,54856.816,55267.641,55155.078,55177.699,55389.145,55428.930,55607.656,0.117,1.016,0.072,-1.892,-0.549,-1.892,100.000,596.000,1.000
55001.836,54983.148,55394.242,55281.141,55304.121,55515.566,55555.441,55733.988,0.111,1.019,0.074,-1.984,-0.763,-1.892,100.000,597.000,1.000
55119.941,55101.164,55512.168,55399.070,55422.316,55633.227,55673.281,55852.094,0.107,1.020,0.073,-1.831,-1.068,-1.495,100.000,598.000,1.000
55239.121,55220.254,55631.082,55518.430,55541.496,55752.496,55792.461,55971.094,0.105,1.021,0.077,-1.587,-1.434,-1.221,100.000,599.000,1.000
55353.918,55335.145,55745.789,55633.227,55655.938,55867.293,55907.527,56085.984,0.102,1.021,0.076,-1.099,-1.831,-0.885,100.000,600.000,1.000
55450.926,55432.418,55843.066,55730.500,55753.121,55964.570,56004.891,56183.258,0.098,1.019,0.075,-0.824,-2.075,-0.549,100.000,601.000,1.000
55538.008,55519.410,55930.148,55817.496,55840.383,56051.742,56092.152,56270.699,0.098,1.018,0.073,-0.366,-2.197,-0.244,100.000,602.000,1.000
55630.367,55611.859,56022.773,55909.941,55932.918,56144.277,56184.598,56363.234,0.095,1.016,0.072,-0.183,-2.411,-0.061,100.000,603.000,1.000
55729.250,55710.742,56121.566,56009.004,56031.715,56243.160,56283.395,56462.207,0.095,1.013,0.073,-0.061,-2.441,0.000,100.000,604.000,1.000
55826.078,55807.570,56218.574,56106.012,56128.629,56340.078,56380.313,56558.945,0.094,1.011,0.074,-0.061,-2.594,0.000,100.000,605.000,1.000
55914.055,55895.277,56306.371,56193.719,56216.430,56428.145,56468.020,56646.742,0.096,1.011,0.071,0.183,-2.716,0.000,100.000,606.000,1.000
55998.813,55980.035,56391.129,56278.746,56300.918,56512.902,56552.867,56731.680,0.099,1.011,0.068,0.214,-2.808,0.061,100.000,607.000,1.000
56087.504,56069.266,56479.730,56367.258,56389.969,56602.039,56641.469,56820.551,0.099,1.006,0.067,0.366,-2.869,0.153,100.000,608.000,1.000
56176.910,56158.672,56569.227,56456.574,56479.195,56691.535,56731.234,56910.227,0.099,1.005,0.060,0.458,-2.808,0.305,100.000,609.000,1.000
56256.660,56238.602,56649.070,56536.414,56559.125,56771.289,56810.895,56989.977,0.101,1.004,0.057,0.427,-2.747,0.244,100.000,610.000,1.000
56331.137,56313.078,56723.457,56610.715,56633.957,56845.766,56885.461,57064.723,0.104,1.002,0.054,0.305,-2.563,0.336,100.000,611.000,1.000
56409.191,56390.949,56801.777,56688.766,56711.832,56923.727,56963.691,57142.953,0.106,1.001,0.056,0.092,-2.289,0.092,100.000,612.000,1.000
56485.184,56467.035,56877.594,56764.582,56787.828,56999.543,57039.328,57218.949,0.112,0.999,0.055,-0.275,-1.953,-0.244,100.000,613.000,1.000
56555.371,56537.309,56948.137,56835.035,56858.102,57069.996,57109.605,57289.043,0.114,1.003,0.056,-0.885,-1.495,-0.610,100.000,614.000,1.000
56620.547,56602.039,57012.777,56900.301,56923.012,57134.906,57174.602,57353.773,0.114,1.006,0.059,-1.251,-1.251,-0.946,100.000,615.000,1.000
56692.879,56674.461,57084.926,56972.813,56995.164,57207.324,57247.203,57426.371,0.113,1.008,0.067,-1.556,-0.916,-1.160,100.000,616.000,1.000
56771.914,56753.496,57163.965,57051.133,57074.199,57286.184,57326.059,57505.496,0.112,1.012,0.069,-1.831,-0.732,-1.343,100.000,617.000,1.000
56855.152,56837.180,57247.559,57134.547,57157.703,57369.957,57409.297,57589.273,0.111,1.016,0.070,-1.801,-0.793,-1.404,100.000,618.000,1.000
56936.602,56918.809,57329.457,57216.535,57239.602,57451.496,57491.016,57670.723,0.112,1.018,0.071,-1.770,-0.885,-1.373,100.000,619.000,1.000
57022.789,57004.820,57415.555,57302.633,57325.609,57537.418,57576.844,57757.090,0.111,1.019,0.078,-1.587,-0.977,-1.373,100.000,620.000,1.000
57120.422,57102.719,57513.188,57400.266,57423.242,57634.961,57674.566,57854.723,0.111,1.021,0.079,-1.465,-1.007,-1.221,100.000,621.000,1.000
57227.980,57210.723,57621.102,57507.824,57530.441,57742.965,57782.660,57962.637,0.108,1.020,0.082,-1.099,-1.190,-1.129,100.000,622.000,1.000
57338.309,57321.051,57731.340,57618.238,57641.039,57853.559,57892.629,58073.145,0.110,1.022,0.082,-0.885,-1.434,-1.068,100.000,623.000,1.000
57454.355,57436.742,57847.121,57734.113,57756.910,57969.074,58008.234,58188.926,0.112,1.023,0.080,-0.671,-1.678,-1.038,100.000,624.000,1.000
57576.219,57558.426,57968.715,57856.152,57879.129,58091.383,58130.453,58310.695,0.112,1.021,0.078,-0.427,-1.892,-1.007,100.000,625.000,1.000
57700.496,57682.883,58093.082,57980.340,58003.586,58215.656,58254.816,58435.332,0.112,1.021,0.078,-0.397,-1.953,-1.099,100.000,626.000,1.000
57822.000,57804.387,58214.496,58102.020,58125.090,58337.074,58376.320,58556.836,0.108,1.021,0.079,-0.183,-2.228,-0.885,100.000,627.000,1.000
57953.695,57936.262,58346.371,58234.074,58256.516,58468.500,58508.020,58688.801,0.104,1.020,0.070,0.061,-2.594,-0.824,100.000,628.000,1.000
58099.695,58082.441,58492.105,58380.078,58402.520,58614.770,58653.750,58834.980,0.103,1.020,0.069,0.244,-3.052,-0.793,100.000,629.000,1.000
58246.055,58228.621,58638.820,58526.613,58548.969,58761.219,58800.199,58981.340,0.098,1.018,0.071,0.519,-3.265,-0.549,100.000,630.000,1.000
58387.141,58369.707,58779.906,58667.340,58690.230,58902.480,58941.375,59122.512,0.098,1.015,0.064,0.793,-3.418,-0.458,100.000,631.000,1.000
58528.313,58511.414,58921.348,58808.961,58831.941,59044.191,59083.172,59264.223,0.097,1.013,0.062,0.885,-3.448,-0.336,100.000,632.000,1.000
58679.055,58662.426,59072.445,58959.973,58982.770,59195.023,59234.094,59415.051,0.097,1.010,0.062,0.793,-3.357,-0.305,100.000,633.000,1.000
58830.508,58813.523,59223.543,59111.070,59134.137,59346.297,59385.281,59566.418,0.100,1.010,0.057,0.580,-3.265,-0.305,100.000,634.000,1.000
58975.438,58958.449,59368.383,59256.266,59278.977,59491.496,59530.207,59711.617,0.099,1.010,0.053,0.488,-3.052,-0.336,100.000,635.000,1.000
59117.594,59100.520,59510.270,59397.887,59420.863,59633.383,59672.098,59853.414,0.095,1.010,0.050,0.275,-2.747,-0.610,100.000,636.000,1.000
59258.590,59241.781,59651.625,59539.418,59562.215,59774.648,59813.359,59995.125,0.094,1.008,0.054,0.153,-2.441,-0.854,100.000,637.000,1.000
59401.016,59384.387,59793.961,59681.844,59704.910,59917.250,59955.695,60137.641,0.097,1.009,0.052,0.061,-1.892,-1.068,100.000,638.000,1.000
59401.016,59384.387,59793.961,59681.844,59704.910,59917.250,59955.695,60137.641,0.097,1.009,0.052,0.061,-1.892,-1.068,100.000,639.000,0.000
59401.016,59384.387,59793.961,59681.844,59704.910,59917.250,59955.695,60137.641,0.097,1.009,0.052,0.061,-1.892,-1.068,100.000,640.000,0.000
59797.625,59781.352,60190.836,60078.633,60101.789,60314.219,60352.844,60534.695,0.092,1.011,0.062,-0.732,-0.092,-1.770,100.000,641.000,1.000
59938.352,59921.813,60331.297,60219.270,60242.336,60454.766,60493.391,60675.242,0.090,1.013,0.069,-1.038,0.183,-1.770,100.000,642.000,1.000
60076.484,60059.676,60469.430,60357.402,60380.648,60592.633,60631.254,60813.379,0.086,1.012,0.073,-0.946,0.519,-1.831,100.000,643.000,1.000
60203.980,60187.887,60597.281,60485.254,60508.320,60720.305,60758.480,60941.410,0.087,1.015,0.080,-0.763,0.549,-1.648,100.000,644.000,1.000
60331.922,60315.559,60725.133,60612.926,60636.082,60848.426,60886.512,61069.262,0.085,1.012,0.081,-0.519,0.336,-1.434,100.000,645.000,1.000
60460.129,60443.500,60853.074,60740.691,60763.758,60976.723,61014.723,61197.379,0.085,1.012,0.081,-0.366,-0.092,-1.251,100.000,646.000,1.000
60585.301,60569.297,60978.691,60866.219,60889.461,61102.250,61140.430,61322.996,0.085,1.012,0.083,-0.244,-0.580,-0.977,100.000,647.000,1.000
60702.961,60687.047,61096.531,60984.234,61007.391,61220.000,61258.355,61440.836,0.091,1.013,0.080,-0.092,-1.099,-0.854,100.000,648.000,1.000
60819.457,60803.633,61213.027,61101.000,61124.246,61336.855,61374.941,61557.512,0.094,1.012,0.078,-0.061,-1.831,-0.793,100.000,649.000,1.000
60943.734,60928.086,61337.480,61225.363,61248.520,61461.309,61499.398,61681.965,0.097,1.014,0.079,-0.183,-2.350,-0.793,100.000,650.000,1.000
61067.113,61051.914,61460.953,61348.926,61372.172,61584.691,61622.691,61805.438,0.099,1.016,0.079,-0.122,-2.747,-0.671,100.000,651.000,1.000
61185.398,61170.113,61579.508,61467.480,61490.457,61703.156,61741.242,61923.813,0.100,1.019,0.073,-0.092,-3.235,-0.427,100.000,652.000,1.000
61300.914,61285.895,61695.020,61582.813,61606.148,61818.582,61856.578,62039.594,0.105,1.019,0.068,0.092,-3.540,-0.244,100.000,653.000,1.000
61414.551,61399.441,61808.656,61696.539,61719.785,61932.039,61970.125,62153.590,0.111,1.017,0.064,0.488,-3.632,-0.153,100.000,654.000,1.000
61525.949,61510.754,61920.234,61807.852,61831.277,62043.438,62081.883,62264.898,0.115,1.013,0.060,0.610,-3.632,0.000,100.000,655.000,1.000
61632.344,61617.594,62026.629,61914.246,61937.492,62149.742,62187.742,62371.293,0.116,1.013,0.059,0.641,-3.448,-0.092,100.000,656.000,1.000
61728.996,61713.617,62123.277,62010.715,62033.781,62246.570,62283.945,62467.766,0.113,1.010,0.057,0.610,-3.265,-0.336,100.000,657.000,1.000
61821.172,61806.152,62215.367,62102.984,62125.961,62338.660,62376.121,62559.941,0.111,1.009,0.059,0.519,-2.716,-0.549,100.000,658.000,1.000
61911.207,61896.098,62305.223,62192.926,62216.441,62428.516,62466.246,62650.066,0.106,1.009,0.061,0.275,-2.350,-0.702,100.000,659.000,1.000
61999.094,61984.340,62393.020,62280.637,62304.238,62516.492,62554.133,62737.863,0.102,1.010,0.062,0.244,-1.709,-0.916,100.000,660.000,1.000
62081.438,62066.594,62475.363,62363.246,62386.582,62599.281,62636.566,62820.297,0.100,1.011,0.059,0.305,-1.068,-0.885,100.000,661.000,1.000
62164.316,62149.117,62557.977,62445.949,62469.375,62682.164,62719.535,62903.086,0.097,1.009,0.060,0.275,-0.549,-0.946,100.000,662.000,1.000
62247.109,62232.266,62641.480,62529.277,62552.789,62765.313,62802.684,62986.504,0.096,1.008,0.063,0.336,-0.244,-0.824,100.000,663.000,1.000
62323.910,62309.156,62718.191,62606.168,62629.414,62842.199,62879.574,63063.484,0.093,1.003,0.063,0.427,0.031,-0.885,100.000,664.000,1.000
62391.680,62377.105,62785.695,62673.938,62697.184,62909.973,62947.523,63131.254,0.093,1.000,0.064,0.427,0.061,-1.068,100.000,665.000,1.000
62458.465,62443.805,62852.570,62740.813,62763.789,62977.027,63014.129,63198.039,0.093,0.999,0.063,0.397,0.000,-1.160,100.000,666.000,1.000
62530.438,62515.688,62924.723,62812.695,62836.031,63049.000,63086.281,63270.281,0.095,1.000,0.066,0.153,-0.031,-1.434,100.000,667.000,1.000
62613.230,62598.566,63007.066,62895.219,62918.465,63131.434,63168.625,63352.895,0.097,1.002,0.064,-0.031,-0.092,-1.617,100.000,668.000,1.000
62689.582,62675.098,63083.688,62971.484,62995.086,63207.520,63244.891,63429.156,0.095,1.007,0.065,-0.336,-0.153,-1.587,100.000,669.000,1.000
62767.547,62752.973,63161.652,63049.625,63073.406,63285.570,63323.121,63507.301,0.094,1.010,0.067,-0.488,-0.244,-1.434,100.000,670.000,1.000
62858.563,62843.988,63252.313,63140.910,63164.156,63376.676,63414.047,63598.406,0.088,1.016,0.068,-0.427,-0.427,-1.282,100.000,671.000,1.000
62955.121,62940.637,63348.961,63237.469,63260.984,63473.684,63510.605,63694.785,0.087,1.020,0.068,-0.397,-0.549,-1.007,100.000,672.000,1.000
63050.609,63036.215,63444.984,63332.867,63356.738,63569.078,63606.184,63790.629,0.085,1.019,0.073,-0.214,-0.793,-0.610,100.000,673.000,1.000
63151.551,63137.512,63546.281,63434.074,63457.855,63670.199,63707.660,63892.285,0.089,1.018,0.075,-0.061,-1.190,-0.244,100.000,674.000,1.000
63261.340,63247.125,63655.625,63544.047,63567.738,63779.902,63817.273,64001.988,0.091,1.017,0.077,0.061,-1.587,0.061,100.000,675.000,1.000
63373.012,63358.617,63767.117,63655.355,63679.051,63891.391,63928.496,64113.211,0.092,1.015,0.077,0.061,-1.892,0.183,100.000,676.000,1.000
63481.551,63467.602,63875.836,63763.809,63787.680,64000.109,64037.125,64222.020,0.094,1.013,0.080,-0.031,-2.472,0.305,100.000,677.000,1.000
63590.984,63577.305,63985.715,63873.777,63897.203,64109.633,64146.469,64331.723,0.098,1.013,0.082,-0.031,-2.960,0.275,100.000,678.000,1.000
63707.301,63693.711,64101.945,63990.188,64013.523,64226.043,64263.055,64448.398,0.098,1.012,0.082,-0.092,-3.326,0.061,100.000,679.000,1.000
63831.938,63818.523,64226.488,64114.461,64138.066,64350.855,64387.691,64572.941,0.096,1.013,0.078,-0.275,-3.448,-0.183,100.000,680.000,1.000
63953.797,63940.207,64348.082,64236.324,64260.016,64472.805,64509.461,64694.625,0.100,1.011,0.076,-0.336,-3.510,-0.336,100.000,681.000,1.000
64076.730,64063.590,64471.730,64359.793,64383.398,64596.188,64632.844,64818.094,0.103,1.011,0.072,-0.336,-3.540,-0.519,100.000,682.000,1.000
64212.363,64199.043,64607.184,64495.156,64519.117,64731.461,64768.473,64953.727,0.104,1.009,0.071,-0.183,-3.418,-0.702,100.000,683.000,1.000
64352.016,64338.965,64746.926,64634.898,64658.504,64870.934,64908.219,65093.738,0.105,1.008,0.066,-0.244,-3.265,-0.916,100.000,684.000,1.000
64482.281,64469.141,64877.551,64765.344,64789.039,65001.469,65038.305,65224.094,0.106,1.007,0.058,-0.183,-2.960,-1.129,100.000,685.000,1.000
64603.609,64590.555,64998.520,64886.492,64910.004,65122.793,65159.449,65345.328,0.109,1.006,0.052,-0.336,-2.472,-1.495,100.000,686.000,1.000
64727.438,64714.652,65122.438,65010.141,65033.656,65246.535,65283.457,65469.336,0.109,1.007,0.051,-0.549,-1.892,-1.984,100.000,687.000,1.000
64849.926,64837.766,65245.281,65133.254,65156.949,65369.559,65406.395,65592.359,0.107,1.009,0.052,-1.038,-1.160,-2.228,100.000,688.000,1.000
64965.258,64952.832,65360.617,65248.500,65272.371,65484.891,65521.551,65707.695,0.107,1.013,0.057,-1.282,-0.366,-2.472,100.000,689.000,1.000
65073.531,65061.191,65468.531,65356.594,65380.465,65592.984,65629.820,65815.516,0.106,1.016,0.057,-1.373,0.183,-2.502,100.000,690.000,1.000
65180.820,65168.480,65576.086,65463.883,65487.574,65700.094,65737.289,65923.164,0.105,1.022,0.060,-1.282,0.519,-2.625,100.000,691.000,1.000
65294.277,65281.758,65690.078,65577.695,65601.125,65814.086,65850.391,66036.891,0.103,1.025,0.068,-0.977,0.824,-2.441,100.000,692.000,1.000
65399.598,65386.813,65795.047,65682.930,65706.531,65919.141,65955.617,66142.211,0.101,1.029,0.070,-0.610,0.824,-2.136,100.000,693.000,1.000
65487.844,65475.504,65883.555,65771.266,65795.133,66007.742,66044.398,66230.727,0.101,1.032,0.077,-0.153,0.702,-1.831,100.000,694.000,1.000
65575.016,65563.031,65971.000,65858.523,65882.398,66095.273,66131.305,66317.898,0.101,1.030,0.082,0.275,0.549,-1.556,100.000,695.000,1.000
65667.461,65655.484,66063.266,65951.148,65974.844,66187.453,66223.844,66410.609,0.102,1.028,0.086,0.702,0.305,-1.312,100.000,696.000,1.000
65760.445,65748.734,66156.336,66044.578,66067.648,66280.438,66317.094,66503.867,0.101,1.026,0.086,1.068,-0.031,-1.282,100.000,697.000,1.000
65838.586,65826.695,66234.211,66122.367,66145.875,66358.398,66395.148,66581.914,0.099,1.024,0.083,1.465,-0.427,-1.312,100.000,698.000,1.000
65910.914,65899.023,66306.453,66194.250,66218.477,66430.641,66467.656,66654.156,0.097,1.024,0.085,1.740,-0.946,-1.251,100.000,699.000,1.000
65989.953,65978.148,66385.844,66273.727,66297.781,66509.766,66546.602,66733.281,0.094,1.019,0.075,2.045,-1.312,-1.190,100.000,700.000,1.000
66072.297,66060.852,66468.188,66356.430,66380.125,66592.289,66628.680,66815.984,0.093,1.018,0.073,2.106,-1.617,-1.099,100.000,701.000,1.000
66152.492,66140.961,66548.391,66436.719,66460.055,66672.930,66709.141,66896.180,0.087,1.014,0.069,2.167,-1.892,-0.916,100.000,702.000,1.000
66230.281,66218.836,66626.172,66514.328,66537.930,66750.805,66786.836,66973.789,0.084,1.012,0.068,2.045,-2.350,-0.824,100.000,703.000,1.000
66312.531,66300.906,66708.430,66596.398,66620.180,66832.883,66868.734,67055.773,0.081,1.012,0.063,1.892,-2.594,-0.580,100.000,704.000,1.000
66404.891,66393.445,66800.875,66688.844,66712.719,66925.414,66961.273,67148.313,0.078,1.010,0.063,1.648,-2.502,-0.305,100.000,705.000,1.000
66498.234,66486.695,66894.211,66782.188,66805.789,67018.492,67054.430,67241.922,0.079,1.007,0.059,1.465,-2.594,-0.061,100.000,706.000,1.000
66588.172,66576.727,66984.070,66872.133,66895.555,67108.164,67144.195,67331.859,0.082,1.003,0.055,1.099,-2.380,0.092,100.000,707.000,1.000
66677.406,66666.141,67073.477,66961.539,66984.961,67197.305,67233.695,67420.914,0.089,0.998,0.054,0.885,-2.197,0.092,100.000,708.000,1.000
66766.539,66755.547,67162.797,67051.125,67074.367,67286.891,67322.922,67510.586,0.094,0.996,0.054,0.580,-1.923,0.031,100.000,709.000,1.000
66852.555,66841.375,67248.625,67136.867,67160.289,67372.898,67408.664,67596.414,0.099,0.996,0.051,0.244,-1.617,-0.214,100.000,710.000,1.000
66938.383,66927.742,67334.992,67222.961,67246.836,67459.266,67495.211,67682.781,0.100,0.997,0.050,0.000,-1.465,-0.244,100.000,711.000,1.000
67030.289,67019.742,67427.078,67314.695,67339.016,67551.711,67587.391,67774.781,0.104,0.994,0.055,-0.397,-1.099,-0.305,100.000,712.000,1.000
67128.195,67117.461,67524.711,67412.328,67436.555,67649.617,67685.375,67872.594,0.106,0.996,0.062,-0.610,-1.007,-0.580,100.000,713.000,1.000
67225.469,67214.914,67621.898,67509.781,67533.563,67746.445,67782.563,67969.867,0.113,1.000,0.060,-0.793,-1.007,-0.854,100.000,714.000,1.000
67313.266,67302.719,67709.609,67597.844,67621.719,67834.148,67870.273,68057.578,0.115,1.003,0.056,-0.793,-0.732,-1.007,100.000,715.000,1.000
67399.008,67388.367,67795.258,67683.320,67707.281,67920.070,67955.836,68143.320,0.114,1.006,0.058,-0.885,-0.275,-1.099,100.000,716.000,1.000
67487.969,67477.148,67884.305,67772.188,67796.422,68008.852,68044.523,68232.641,0.113,1.009,0.061,-0.793,-0.031,-1.190,100.000,717.000,1.000
67574.516,67564.055,67971.031,67859.008,67882.969,68095.578,68131.164,68319.453,0.112,1.013,0.059,-0.671,0.244,-1.068,100.000,718.000,1.000
67652.117,67642.102,68048.813,67937.148,67960.570,68173.359,68209.305,68397.055,0.108,1.015,0.061,-0.458,0.671,-0.916,100.000,719.000,1.000
67740.094,67730.258,68136.789,68025.391,68048.906,68261.430,68297.461,68485.477,0.103,1.014,0.061,-0.275,1.160,-0.916,100.000,720.000,1.000
67832.453,67822.258,68228.969,68117.484,68141.172,68353.602,68389.727,68577.570,0.099,1.016,0.063,-0.305,1.465,-0.763,100.000,721.000,1.000
67913.008,67902.906,68309.523,68198.125,68221.820,68434.609,68470.641,68658.125,0.094,1.019,0.067,-0.214,1.709,-0.610,100.000,722.000,1.000
67981.852,67971.570,68378.727,68266.789,68290.930,68503.453,68539.664,68727.055,0.086,1.020,0.070,-0.336,1.740,-0.580,100.000,723.000,1.000
68061.063,68051.227,68457.945,68345.914,68370.320,68582.578,68618.695,68806.180,0.079,1.023,0.074,-0.580,1.740,-0.488,100.000,724.000,1.000
68157.266,68147.703,68553.969,68442.477,68466.344,68678.688,68714.984,68902.297,0.074,1.024,0.077,-0.793,1.434,-0.214,100.000,725.000,1.000
68258.922,68249.000,68655.711,68543.953,68567.648,68779.984,68816.375,69004.219,0.069,1.023,0.079,-0.641,0.977,0.092,100.000,726.000,1.000
68353.961,68343.945,68750.484,68638.273,68662.414,68874.844,68910.703,69098.992,0.070,1.021,0.082,-0.458,0.397,0.610,100.000,727.000,1.000
68454.102,68443.992,68850.617,68738.500,68762.555,68975.070,69011.016,69199.125,0.073,1.019,0.080,-0.397,-0.153,0.916,100.000,728.000,1.000
68571.313,68561.117,68967.922,68856.070,68879.852,69092.195,69128.047,69316.969,0.081,1.017,0.077,-0.305,-0.763,1.129,100.000,729.000,1.000
68696.750,68686.828,69093.539,68981.781,69005.648,69218.258,69253.930,69442.578,0.086,1.017,0.073,-0.244,-1.190,1.190,100.000,730.000,1.000
68821.922,68812.797,69218.883,69107.305,69131.180,69343.969,69379.906,69568.023,0.093,1.014,0.071,-0.397,-1.434,1.190,100.000,731.000,1.000
68949.234,68940.117,69346.648,69234.891,69258.313,69471.461,69506.867,69695.242,0.099,1.013,0.072,-0.549,-1.648,0.824,100.000,732.000,1.000
69085.758,69076.820,69482.906,69371.594,69394.656,69607.898,69642.766,69831.859,0.105,1.013,0.069,-0.458,-1.801,0.580,100.000,733.000,1.000
69226.039,69217.094,69623.813,69511.961,69535.211,69748.086,69783.578,69972.586,0.108,1.016,0.066,-0.397,-1.892,0.275,100.000,734.000,1.000
69369.359,69360.508,69766.773,69655.016,69678.352,69891.492,69926.813,70115.547,0.108,1.017,0.063,-0.183,-1.831,0.000,100.000,735.000,1.000
69507.133,69498.195,69904.547,69792.703,69815.945,70028.914,70064.227,70253.414,0.106,1.019,0.061,0.031,-1.740,-0.122,100.000,736.000,1.000
69641.156,69632.391,70038.836,69926.992,69950.234,70163.109,70198.516,70387.523,0.102,1.022,0.064,0.366,-1.587,-0.092,100.000,737.000,1.000
69777.766,69769.453,70175.453,70063.695,70087.203,70300.086,70335.492,70524.320,0.102,1.023,0.067,0.610,-1.465,0.061,100.000,738.000,1.000
69905.617,69897.219,70303.391,70191.453,70215.328,70427.938,70463.609,70652.883,0.100,1.025,0.071,1.007,-1.373,0.214,100.000,739.000,1.000
70022.117,70013.180,70419.445,70307.594,70331.469,70544.164,70579.750,70768.938,0.100,1.027,0.072,1.343,-1.404,0.366,100.000,740.000,1.000
70130.211,70121.445,70527.805,70415.602,70439.383,70652.523,70687.844,70877.117,0.100,1.022,0.073,1.556,-1.556,0.641,100.000,741.000,1.000
70231.773,70223.734,70629.641,70517.609,70541.125,70754.094,70789.586,70979.313,0.097,1.020,0.075,1.740,-1.556,0.793,100.000,742.000,1.000
70321.992,70313.852,70719.938,70608.094,70631.430,70844.219,70879.891,71069.430,0.099,1.021,0.077,1.709,-1.526,0.885,100.000,743.000,1.000
70399.148,70390.922,70797.188,70685.250,70708.945,70921.734,70957.133,71146.680,0.099,1.016,0.080,1.678,-1.617,0.793,100.000,744.000,1.000
70477.375,70469.602,70875.148,70763.570,70787.445,70999.875,71035.281,71224.906,0.096,1.014,0.080,1.770,-1.709,0.641,100.000,745.000,1.000
70558.742,70550.867,70956.422,70845.023,70868.625,71081.055,71116.461,71306.445,0.094,1.014,0.078,1.953,-1.678,0.580,100.000,746.000,1.000
70639.742,70631.602,71037.336,70925.930,70949.086,71161.969,71197.375,71387.094,0.096,1.010,0.076,2.136,-1.526,0.397,100.000,747.000,1.000
70709.656,70701.883,71107.695,70995.938,71019.188,71232.148,71267.289,71457.008,0.102,1.008,0.073,2.350,-1.282,0.336,100.000,748.000,1.000
70773.406,70765.805,71171.625,71059.594,71083.109,71295.719,71330.945,71521.023,0.106,1.002,0.063,2.411,-1.038,-0.061,100.000,749.000,1.000
70840.195,70832.680,71238.500,71126.828,71150.344,71362.953,71398.094,71587.813,0.114,1.002,0.058,2.167,-0.671,-0.549,100.000,750.000,1.000
70907.422,70900.008,71305.641,71194.063,71217.492,71430.281,71465.773,71655.586,0.115,1.000,0.058,1.648,-0.214,-1.068,100.000,751.000,1.000
70964.914,70956.867,71362.773,71251.195,71274.711,71487.766,71522.992,71713.070,0.114,0.999,0.056,1.129,0.427,-1.526,100.000,752.000,1.000
71012.656,71005.148,71411.234,71299.211,71322.453,71535.688,71570.914,71760.727,0.111,1.003,0.062,0.641,0.977,-1.770,100.000,753.000,1.000
71070.773,71063.617,71469.172,71357.414,71380.656,71593.625,71629.031,71818.930,0.106,1.007,0.063,0.214,1.343,-2.014,100.000,754.000,1.000
71144.625,71137.203,71542.570,71431.172,71454.414,71667.203,71702.789,71892.516,0.102,1.011,0.066,0.153,1.556,-2.045,100.000,755.000,1.000
71217.398,71210.070,71615.531,71504.039,71527.195,71740.250,71775.570,71965.289,0.098,1.013,0.066,0.183,1.617,-1.770,100.000,756.000,1.000
71282.578,71275.422,71681.156,71569.398,71592.461,71805.695,71840.922,72031.000,0.092,1.016,0.067,0.244,1.709,-1.251,100.000,757.000,1.000
71349.547,71342.391,71748.297,71636.180,71659.430,71872.844,71908.070,72097.969,0.093,1.019,0.070,0.671,1.556,-0.610,100.000,758.000,1.000
71421.781,71414.539,71820.000,71708.063,71731.398,71944.633,71979.859,72169.766,0.091,1.021,0.077,0.885,1.221,-0.122,100.000,759.000,1.000
71494.383,71487.227,71892.688,71780.750,71803.906,72017.320,72052.547,72242.453,0.093,1.018,0.079,0.946,0.732,0.458,100.000,760.000,1.000
71565.281,71558.578,71963.859,71851.828,71875.438,72088.492,72123.805,72313.617,0.091,1.015,0.077,1.068,0.092,1.038,100.000,761.000,1.000
71644.852,71638.148,72043.695,71931.586,71955.094,72167.977,72203.383,72393.547,0.090,1.015,0.076,1.160,-0.610,1.312,100.000,762.000,1.000
71724.609,71717.719,72123.539,72010.977,72034.672,72247.813,72282.688,72472.945,0.090,1.012,0.074,1.434,-1.160,1.526,100.000,763.000,1.000
71810.703,71803.906,72209.367,72097.430,72120.859,72334.094,72369.227,72559.133,0.095,1.008,0.070,1.404,-1.617,1.648,100.000,764.000,1.000
71893.852,71887.148,72292.430,72180.578,72203.914,72417.242,72452.375,72642.188,0.098,1.004,0.066,1.495,-2.075,1.709,100.000,765.000,1.000
71981.023,71974.680,72379.867,72268.203,72291.539,72504.500,72539.727,72729.805,0.104,0.999,0.062,1.282,-2.136,1.740,100.000,766.000,1.000
72082.055,72075.531,72480.992,72369.227,72392.563,72605.531,72640.938,72831.195,0.110,0.997,0.061,1.221,-2.167,1.404,100.000,767.000,1.000
72191.398,72184.695,72590.156,72478.305,72501.820,72714.969,72750.102,72940.359,0.115,0.996,0.062,1.160,-2.289,1.038,100.000,768.000,1.000
72297.344,72290.734,72696.281,72584.523,72607.859,72820.828,72856.227,73046.398,0.115,0.997,0.060,1.007,-2.289,0.549,100.000,769.000,1.000
72399.805,72393.281,72798.563,72686.805,72710.500,72923.461,72959.047,73149.125,0.117,1.000,0.059,0.824,-2.289,-0.031,100.000,770.000,1.000
72506.914,72500.836,72906.297,72794.273,72817.695,73030.664,73065.977,73256.508,0.118,1.002,0.059,0.732,-2.228,-0.671,100.000,771.000,1.000
72615.813,72609.820,73015.016,72903.258,72926.414,73139.203,73174.336,73364.953,0.118,1.008,0.054,0.549,-1.892,-0.916,100.000,772.000,1.000
72717.469,72711.656,73116.852,73005.180,73028.336,73241.039,73276.266,73466.969,0.113,1.008,0.055,0.488,-1.404,-1.221,100.000,773.000,1.000
72816.711,72810.813,73216.180,73104.516,73127.219,73340.641,73375.859,73566.750,0.112,1.013,0.058,0.244,-0.793,-1.495,100.000,774.000,1.000
72925.250,72919.352,73324.633,73212.875,73235.766,73449.086,73484.586,73675.109,0.110,1.015,0.063,0.000,-0.397,-1.831,100.000,775.000,1.000
73046.484,73040.766,73445.867,73333.750,73357.180,73569.969,73605.547,73796.430,0.105,1.015,0.068,-0.275,-0.153,-2.136,100.000,776.000,1.000
73159.766,73153.594,73558.969,73446.586,73469.828,73682.797,73718.383,73909.445,0.100,1.017,0.071,-0.336,0.092,-2.258,100.000,777.000,1.000
73271.078,73264.906,73670.102,73557.984,73581.320,73794.375,73829.875,74020.844,0.094,1.019,0.071,-0.244,-0.061,-2.136,100.000,778.000,1.000
73393.836,73388.203,73793.219,73681.008,73704.344,73917.133,73953.078,74143.508,0.090,1.019,0.070,-0.122,-0.427,-1.923,100.000,779.000,1.000
73517.664,73511.852,73917.047,73804.836,73828.266,74041.227,74076.727,74267.695,0.085,1.018,0.069,0.244,-1.007,-1.587,100.000,780.000,1.000
73637.914,73632.375,74037.297,73925.180,73948.336,74161.930,74197.336,74388.219,0.083,1.017,0.069,0.427,-1.526,-1.312,100.000,781.000,1.000
73753.070,73747.703,74152.898,74040.602,74063.672,74277.266,74312.047,74503.555,0.081,1.014,0.065,0.397,-1.801,-0.885,100.000,782.000,1.000
73880.922,73875.914,74280.844,74168.906,74192.063,74405.297,74440.078,74631.852,0.085,1.012,0.068,0.427,-2.045,-0.702,100.000,783.000,1.000
74016.555,74011.727,74416.742,74304.445,74327.781,74541.102,74576.148,74767.391,0.087,1.012,0.063,0.427,-2.197,-0.427,100.000,784.000,1.000
74133.859,74129.203,74534.398,74422.195,74444.813,74658.672,74693.188,74885.055,0.088,1.009,0.063,0.458,-2.350,-0.183,100.000,785.000,1.000
74245.164,74240.609,74645.445,74533.414,74555.945,74769.805,74804.406,74996.367,0.089,1.013,0.064,0.427,-2.533,-0.031,100.000,786.000,1.000
74356.570,74352.188,74756.664,74644.906,74667.523,74881.117,74915.719,75107.766,0.092,1.013,0.064,0.427,-2.747,-0.031,100.000,787.000,1.000
74467.258,74462.250,74866.727,74754.789,74777.586,74991.266,75025.961,75218.008,0.098,1.015,0.059,0.519,-2.869,-0.061,100.000,788.000,1.000
74582.766,74578.297,74982.773,74870.656,74893.727,75107.227,75142.008,75334.141,0.104,1.012,0.058,0.641,-3.021,0.183,100.000,789.000,1.000
74692.469,74688.266,75092.922,74980.633,75004.055,75217.375,75251.977,75444.297,0.107,1.011,0.050,0.946,-2.960,0.275,100.000,790.000,1.000
74790.195,74785.898,75190.469,75078.352,75101.148,75314.742,75349.430,75541.656,0.109,1.011,0.049,1.343,-2.747,0.275,100.000,791.000,1.000
74878.883,74874.680,75278.977,75167.219,75189.930,75403.258,75438.391,75630.617,0.112,1.010,0.049,1.556,-2.563,0.305,100.000,792.000,1.000
74971.242,74966.859,75371.516,75259.758,75282.375,75495.523,75530.930,75723.242,0.114,1.010,0.049,1.343,-2.319,0.366,100.000,793.000,1.000
75049.742,75045.898,75450.016,75338.258,75360.789,75574.203,75609.516,75801.836,0.115,1.010,0.051,0.885,-2.045,0.122,100.000,794.000,1.000
75115.094,75111.070,75515.555,75403.523,75425.875,75639.555,75674.430,75867.008,0.116,1.012,0.053,0.458,-1.801,-0.061,100.000,795.000,1.000
75194.313,75190.469,75594.766,75482.648,75505.266,75719.039,75753.820,75946.227,0.116,1.009,0.057,0.092,-1.373,-0.275,100.000,796.000,1.000
75275.938,75272.008,75676.391,75564.453,75587.078,75800.852,75835.805,76028.211,0.116,1.009,0.058,-0.122,-1.251,-0.519,100.000,797.000,1.000
75338.164,75334.414,75738.891,75626.773,75649.391,75862.984,75898.305,76090.617,0.115,1.007,0.061,-0.214,-1.434,-0.793,100.000,798.000,1.000
75390.742,75386.805,75791.195,75679.164,75701.961,75915.648,75950.695,76143.102,0.115,1.008,0.066,-0.214,-1.770,-1.068,100.000,799.000,1.000
75444.383,75440.445,75844.836,75732.539,75755.250,75969.023,76004.070,76196.477,0.112,1.008,0.072,-0.092,-2.075,-1.068,100.000,800.000,1.000
75489.805,75485.961,75890.344,75778.227,75800.672,76014.352,76049.398,76242.070,0.106,1.008,0.076,-0.092,-2.502,-1.068,100.000,801.000,1.000
75536.563,75532.625,75936.570,75824.992,75847.250,76060.844,76095.891,76288.563,0.100,1.009,0.077,0.031,-3.021,-0.977,100.000,802.000,1.000
75598.164,75594.406,75998.617,75886.859,75909.477,76122.805,76157.938,76350.430,0.093,1.008,0.078,0.183,-3.326,-1.160,100.000,803.000,1.000
75656.102,75652.430,76056.195,75944.438,75966.969,76180.828,76215.695,76408.188,0.087,1.005,0.077,0.427,-3.540,-1.221,100.000,804.000,1.000
75704.109,75700.000,76104.383,75992.180,76014.891,76228.570,76263.438,76456.023,0.087,1.005,0.070,0.763,-3.815,-1.160,100.000,805.000,1.000
75762.406,75758.828,76163.125,76051.008,76073.359,76287.492,76322.094,76514.945,0.087,1.004,0.069,1.007,-3.815,-0.946,100.000,806.000,1.000
75821.680,75818.375,76222.492,76110.555,76132.727,76346.945,76381.633,76574.484,0.090,1.003,0.073,1.160,-3.754,-0.977,100.000,807.000,1.000
75874.250,75871.211,76274.977,76163.219,76185.297,76399.516,76434.383,76627.508,0.094,1.003,0.070,1.160,-3.540,-1.007,100.000,808.000,1.000
75929.234,75925.750,76329.688,76218.203,76240.016,76454.148,76488.922,76682.047,0.092,1.004,0.068,1.129,-3.296,-0.824,100.000,809.000,1.000
75998.078,75994.414,76398.359,76286.688,76308.680,76522.813,76557.414,76750.797,0.092,1.007,0.059,0.916,-3.052,-0.824,100.000,810.000,1.000
76066.656,76063.258,76467.195,76355.438,76377.344,76591.742,76626.164,76819.555,0.096,1.007,0.058,0.854,-3.052,-0.763,100.000,811.000,1.000
76136.305,76132.820,76537.023,76425.180,76447.258,76661.656,76696.078,76889.375,0.099,1.005,0.056,0.702,-2.899,-0.763,100.000,812.000,1.000
76212.391,76208.898,76612.930,76500.992,76523.703,76737.391,76771.898,76964.930,0.103,1.005,0.058,0.671,-2.716,-0.671,100.000,813.000,1.000
76289.992,76286.953,76690.805,76579.227,76601.313,76814.992,76849.773,77043.070,0.105,1.004,0.053,0.641,-2.350,-0.671,100.000,814.000,1.000
76354.188,76351.148,76755.719,76643.781,76665.594,76879.547,76914.234,77107.797,0.105,1.005,0.047,0.275,-1.984,-0.702,100.000,815.000,1.000
76430.094,76426.516,76831.172,76719.414,76741.055,76955.359,76989.961,77183.352,0.110,1.006,0.050,-0.092,-1.648,-0.946,100.000,816.000,1.000
76523.797,76520.578,76924.695,76812.844,76834.750,77048.969,77083.570,77276.867,0.107,1.005,0.051,-0.549,-1.312,-1.221,100.000,817.000,1.000
76605.063,76601.938,77005.969,76893.852,76916.383,77130.328,77165.023,77358.320,0.105,1.005,0.056,-0.885,-1.099,-1.434,100.000,818.000,1.000
76687.766,76684.906,77088.938,76976.820,76999.078,77213.297,77248.078,77441.375,0.100,1.003,0.058,-1.221,-1.007,-1.587,100.000,819.000,1.000
76790.047,76787.273,77191.398,77079.281,77101.094,77315.313,77350.273,77543.477,0.099,1.004,0.056,-1.526,-1.160,-1.617,100.000,820.000,1.000
76895.281,76892.688,77296.445,77184.508,77206.594,77420.813,77455.680,77648.891,0.100,1.003,0.054,-1.801,-1.404,-1.709,100.000,821.000,1.000
76984.242,76981.469,77385.500,77273.742,77295.641,77509.414,77544.461,77737.672,0.102,1.004,0.054,-2.014,-1.648,-1.709,100.000,822.000,1.000
77061.664,77059.250,77463.195,77351.258,77373.336,77587.109,77622.156,77815.547,0.105,1.005,0.058,-2.258,-1.709,-1.984,100.000,823.000,1.000
77146.156,77143.742,77547.859,77435.656,77457.563,77671.867,77706.555,77899.766,0.115,1.003,0.059,-2.808,-1.465,-2.411,100.000,824.000,1.000
77245.578,77242.625,77646.742,77534.898,77556.805,77771.023,77805.445,77999.188,0.117,1.000,0.056,-3.143,-1.068,-2.594,100.000,825.000,1.000
77356.711,77353.938,77757.609,77645.766,77667.578,77881.883,77916.484,78110.500,0.113,1.004,0.057,-3.296,-0.641,-2.960,100.000,826.000,1.000
77469.008,77466.766,77870.445,77758.328,77780.320,77994.273,78029.227,78223.242,0.109,1.012,0.057,-3.387,-0.122,-3.235,100.000,827.000,1.000
77555.281,77553.227,77957.078,77845.047,77866.867,78080.906,78115.867,78309.875,0.108,1.020,0.063,-3.143,0.092,-3.510,100.000,828.000,1.000
77626.359,77624.484,78028.336,77916.398,77938.391,78152.344,78187.391,78381.133,0.103,1.023,0.064,-2.533,0.305,-3.418,100.000,829.000,1.000
77722.563,77720.953,78124.719,78012.602,78034.414,78248.633,78283.234,78477.422,0.099,1.025,0.069,-1.953,0.397,-3.204,100.000,830.000,1.000
77833.875,77832.000,78235.492,78123.461,78145.008,78359.320,78393.922,78587.930,0.096,1.027,0.069,-1.434,0.366,-2.686,100.000,831.000,1.000
77918.008,77915.859,78319.086,78207.328,78228.781,78443.094,78477.516,78671.531,0.096,1.025,0.072,-0.885,0.153,-2.045,100.000,832.000,1.000
77994.898,77992.750,78395.977,78284.664,78306.031,78520.344,78554.852,78748.867,0.097,1.025,0.076,-0.549,-0.244,-1.434,100.000,833.000,1.000
78094.852,78092.883,78496.469,78384.977,78406.172,78620.563,78655.164,78849.180,0.098,1.025,0.079,-0.305,-0.854,-0.854,100.000,834.000,1.000
78200.977,78199.461,78602.594,78490.930,78512.203,78727.227,78761.117,78955.570,0.096,1.022,0.081,0.000,-1.373,-0.427,100.000,835.000,1.000
78292.172,78290.656,78693.883,78581.945,78603.578,78818.422,78852.313,79046.859,0.093,1.021,0.082,0.122,-2.014,-0.305,100.000,836.000,1.000
78385.156,78384.086,78787.578,78675.461,78697.367,78911.320,78946.008,79140.289,0.091,1.020,0.081,0.153,-2.594,-0.153,100.000,837.000,1.000
78487.617,78486.273,78889.859,78777.836,78799.648,79014.047,79048.469,79242.750,0.090,1.022,0.078,0.244,-2.869,0.031,100.000,838.000,1.000
78575.234,78573.180,78976.672,78864.648,78886.461,79101.305,79135.375,79329.563,0.088,1.021,0.080,0.519,-3.143,0.122,100.000,839.000,1.000
78657.227,78655.438,79059.109,78946.898,78968.445,79183.383,79217.266,79412.000,0.089,1.020,0.076,0.793,-3.204,0.305,100.000,840.000,1.000
78749.758,78748.242,79151.914,79039.617,79060.805,79276.102,79309.891,79504.805,0.086,1.016,0.075,1.190,-3.418,0.610,100.000,841.000,1.000
78850.344,78849.180,79252.852,79140.555,79161.922,79376.680,79411.102,79605.383,0.086,1.018,0.070,1.465,-3.448,0.732,100.000,842.000,1.000
78959.953,78959.063,79362.469,79250.258,79271.539,79486.383,79520.891,79715.086,0.084,1.017,0.069,1.709,-3.540,0.732,100.000,843.000,1.000
79077.344,79076.094,79479.500,79367.117,79388.391,79603.773,79637.750,79832.570,0.082,1.017,0.068,1.801,-3.418,0.763,100.000,844.000,1.000
79187.672,79187.141,79589.734,79477.711,79499.258,79714.016,79748.164,79943.164,0.080,1.017,0.062,1.801,-3.387,0.702,100.000,845.000,1.000
79288.344,79287.992,79690.320,79578.563,79599.750,79814.508,79849.016,80043.750,0.077,1.018,0.060,1.556,-3.204,0.702,100.000,846.000,1.000
79394.648,79393.672,79796.445,79684.781,79705.609,79920.633,79954.969,80150.055,0.074,1.016,0.061,1.526,-2.991,0.824,100.000,847.000,1.000
79507.039,79506.320,79909.547,79797.695,79818.172,80033.461,80067.797,80262.703,0.072,1.017,0.060,1.495,-2.869,0.946,100.000,848.000,1.000
79599.219,79598.414,80001.453,79889.695,79910.438,80125.734,80159.883,80354.617,0.076,1.019,0.062,1.495,-2.625,0.916,100.000,849.000,1.000
79705.875,79705.250,80108.117,79996.453,80017.281,80232.398,80266.641,80461.188,0.077,1.018,0.062,1.343,-2.502,1.068,100.000,850.000,1.000
79818.891,79818.438,80221.313,80109.461,80130.563,80345.406,80379.648,80574.648,0.081,1.016,0.059,1.282,-2.350,1.038,100.000,851.000,1.000
79907.313,79907.398,80309.914,80197.977,80219.070,80434.188,80468.164,80663.781,0.086,1.016,0.061,1.221,-2.228,1.160,100.000,852.000,1.000
79994.305,79994.125,80396.906,80284.875,80305.531,80521.094,80555.063,80750.688,0.088,1.016,0.062,1.312,-2.106,1.282,100.000,853.000,1.000
80103.109,80103.109,80505.984,80394.047,80414.789,80630.164,80664.055,80859.492,0.090,1.014,0.064,1.495,-1.892,1.526,100.000,854.000,1.000
80193.414,80193.953,80596.461,80484.523,80505.266,80720.914,80754.711,80949.883,0.095,1.016,0.063,1.831,-1.862,1.556,100.000,855.000,1.000
80261.633,80262.164,80664.586,80552.828,80573.391,80788.867,80822.836,81018.281,0.102,1.014,0.067,1.984,-1.587,1.495,100.000,856.000,1.000
80315.898,80316.438,80718.766,80606.742,80627.570,80843.047,80876.750,81072.461,0.107,1.012,0.064,2.106,-1.221,1.343,100.000,857.000,1.000
80368.469,80368.828,80771.430,80659.227,80680.500,80895.883,80929.414,81125.031,0.108,1.010,0.065,2.228,-0.916,1.099,100.000,858.000,1.000
80423.188,80423.367,80826.234,80714.031,80734.859,80950.516,80984.219,81179.844,0.108,1.010,0.065,2.106,-0.732,0.977,100.000,859.000,1.000
80486.313,80486.672,80889.266,80777.328,80798.070,81013.813,81047.695,81242.875,0.104,1.013,0.064,2.014,-0.458,0.641,100.000,860.000,1.000
80547.734,80548.180,80950.602,80838.578,80859.492,81075.328,81108.938,81304.383,0.101,1.013,0.063,1.862,-0.488,0.427,100.000,861.000,1.000
80607.461,80607.906,81010.508,80898.297,80919.219,81135.141,81168.398,81364.555,0.097,1.010,0.058,1.740,-0.610,0.122,100.000,862.000,1.000
80663.961,80664.406,81067.188,80955.250,80976.172,81191.641,81225.172,81421.063,0.096,1.011,0.061,1.587,-0.519,0.092,100.000,863.000,1.000
80712.688,80712.688,81115.648,81003.711,81024.719,81240.102,81273.805,81469.609,0.096,1.012,0.062,1.556,-0.336,-0.153,100.000,864.000,1.000
80773.305,80773.305,81176.172,81064.328,81085.336,81300.813,81334.070,81529.961,0.095,1.010,0.058,1.282,-0.092,-0.305,100.000,865.000,1.000
80838.039,80838.125,81241.086,81129.148,81149.891,81365.625,81399.156,81594.688,0.094,1.010,0.057,1.099,0.244,-0.366,100.000,866.000,1.000
80906.789,80906.523,81309.656,81197.273,81218.195,81434.023,81467.734,81663.625,0.097,1.009,0.059,1.007,0.580,-0.702,100.000,867.000,1.000
80988.602,80988.508,81391.555,81279.258,81300.273,81515.836,81549.359,81745.516,0.095,1.008,0.062,0.702,0.916,-0.977,100.000,868.000,1.000
81065.844,81065.844,81468.539,81356.602,81377.609,81592.992,81626.609,81822.945,0.096,1.011,0.063,0.519,1.251,-1.343,100.000,869.000,1.000
81129.328,81129.773,81532.555,81420.789,81441.805,81656.828,81690.625,81886.781,0.095,1.014,0.068,0.061,1.495,-1.617,100.000,870.000,1.000
81195.219,81195.938,81598.711,81486.688,81507.336,81722.992,81756.695,81952.586,0.090,1.018,0.073,-0.244,1.709,-1.617,100.000,871.000,1.000
81264.602,81265.227,81668.000,81555.797,81576.805,81792.461,81825.984,82022.055,0.088,1.022,0.076,-0.214,1.709,-1.495,100.000,872.000,1.000
81347.477,81348.555,81751.148,81638.859,81659.688,81875.156,81908.953,82104.938,0.090,1.019,0.079,0.122,1.678,-1.190,100.000,873.000,1.000
