EEG 1,EEG 2,EEG 3,EEG 4,EEG 5,EEG 6,EEG 7,EEG 8,Accelerometer X,Accelerometer Y,Accelerometer Z,Gyroscope X,Gyroscope Y,Gyroscope Z,Battery Level,Counter,Validation Indicator
288833.375,170356.328,-40185.398,81534.070,-95081.820,81208.719,79583.391,373542.625,0.019,0.968,0.034,0.000,0.000,0.000,100.000,1.000,1.000
-501.841,2534.599,1856.447,1867.712,1112.670,796.527,-68.039,17906.877,0.021,0.978,0.027,0.000,0.000,0.000,100.000,2.000,1.000
-2713.591,-32.812,-3693.760,0.000,0.000,0.000,0.000,2525.568,0.020,0.981,0.030,0.000,0.000,0.000,100.000,3.000,1.000
-2529.234,-1295.686,-20023.498,0.000,0.000,6.348,0.000,319.988,0.022,0.981,0.034,0.000,0.000,0.000,100.000,4.000,1.000
-2201.111,-2956.600,-19258.531,0.000,0.000,-89.318,-11.802,-35.137,0.024,0.983,0.031,0.000,0.000,0.000,100.000,5.000,1.000
-1611.203,-2555.341,-5373.539,0.000,0.000,-573.099,-697.285,-290.751,0.026,0.982,0.029,1.038,2.319,2.258,100.000,6.000,1.000
-1230.508,-2161.324,-178.725,-0.626,0.000,-1448.125,-1946.926,-444.532,0.032,0.984,0.025,1.526,1.160,1.923,100.000,7.000,1.000
-1026.750,-1875.848,-673.145,-107.735,71.615,-1305.700,-1755.417,-499.249,0.032,0.984,0.031,1.099,-0.458,0.854,100.000,8.000,1.000
-906.229,-1592.338,-961.661,-672.519,718.206,-1045.883,-1352.459,-502.199,0.031,0.985,0.034,0.854,-1.007,0.763,100.000,9.000,1.000
-796.348,-1273.781,-812.441,-797.242,-631.750,-790.447,-1007.706,-420.392,0.030,0.985,0.035,0.702,-1.099,0.671,100.000,10.000,1.000
-694.156,-948.698,-638.366,-570.953,-957.281,-555.843,-697.464,-255.972,0.031,0.983,0.038,0.549,-0.977,0.763,100.000,11.000,1.000
-623.077,-702.918,-510.961,-395.984,-879.765,-358.701,-432.193,-60.439,0.032,0.984,0.040,0.305,-0.885,0.732,100.000,12.000,1.000
-608.057,-575.870,-449.717,-305.504,-926.256,-201.345,-190.347,46.581,0.029,0.983,0.038,0.183,-0.610,0.824,100.000,13.000,1.000
-677.884,-597.596,-480.920,-339.478,-1099.795,-46.670,-13.322,279.307,0.027,0.982,0.036,-0.214,-0.366,0.885,100.000,14.000,1.000
-815.392,-675.291,-588.209,-378.281,-1366.228,-5.007,48.816,430.495,0.024,0.984,0.032,-0.427,-0.092,0.793,100.000,15.000,1.000
-703.544,-523.388,-522.137,-296.474,-930.011,16.719,13.500,297.636,0.021,0.982,0.030,-0.702,0.000,0.671,100.000,16.000,1.000
-474.840,-385.165,-413.597,-357.270,-391.692,-10.371,-41.753,86.546,0.021,0.981,0.025,-1.068,-0.153,0.458,100.000,17.000,1.000
-325.710,-420.123,-208.408,-273.764,-380.784,-22.709,-186.056,-61.870,0.024,0.984,0.025,-1.373,-0.275,0.366,100.000,18.000,1.000
-245.154,-285.387,-133.127,-214.040,-217.795,-88.602,-209.481,-164.062,0.020,0.984,0.023,-1.740,-0.305,0.336,100.000,19.000,1.000
-213.414,-245.959,-191.510,-181.675,-186.056,-184.894,-202.507,-192.583,0.019,0.987,0.022,-2.014,-0.366,0.244,100.000,20.000,1.000
-189.006,-233.710,-189.453,-167.191,-178.456,-178.456,-196.159,-185.788,0.017,0.992,0.027,-2.411,-0.549,0.122,100.000,21.000,1.000
-180.334,-227.004,-184.268,-160.575,-173.092,-173.181,-191.152,-180.423,0.020,0.991,0.026,-2.838,-0.854,0.061,100.000,22.000,1.000
-176.311,-221.014,-179.440,-155.479,-168.979,-168.711,-185.788,-175.327,0.020,0.993,0.029,-3.082,-0.885,0.000,100.000,23.000,1.000
-172.198,-216.007,-175.417,-151.366,-164.866,-164.509,-181.943,-171.125,0.021,0.991,0.031,-3.204,-1.160,-0.092,100.000,24.000,1.000
-168.622,-211.626,-171.930,-147.700,-161.469,-160.575,-178.188,-167.727,0.023,0.993,0.032,-3.174,-1.312,-0.183,100.000,25.000,1.000
-165.314,-207.156,-168.443,-144.213,-158.161,-157.893,-174.612,-164.241,0.025,0.996,0.033,-3.082,-1.312,0.000,100.000,26.000,1.000
-162.005,-203.043,-165.314,-141.263,-155.032,-154.674,-171.393,-160.843,0.027,0.999,0.031,-2.747,-1.221,-0.122,100.000,27.000,1.000
-159.055,-198.841,-162.452,-138.670,-152.171,-151.992,-168.175,-157.535,0.029,0.998,0.034,-2.319,-1.038,-0.122,100.000,28.000,1.000
-156.641,-195.175,-159.681,-136.167,-149.757,-149.399,-165.135,-155.032,0.031,1.000,0.039,-1.953,-0.671,-0.122,100.000,29.000,1.000
-153.959,-191.957,-157.267,-133.753,-147.164,-146.717,-162.452,-152.797,0.033,1.003,0.043,-1.526,-0.427,-0.092,100.000,30.000,1.000
-151.634,-189.096,-154.763,-131.607,-145.018,-144.482,-160.307,-150.472,0.037,1.006,0.046,-1.251,-0.336,-0.092,100.000,31.000,1.000
-149.667,-186.056,-152.350,-129.372,-142.783,-142.336,-157.893,-148.147,0.033,1.008,0.046,-1.160,-0.092,-0.092,100.000,32.000,1.000
-147.164,-183.463,-150.561,-127.405,-140.816,-140.458,-155.658,-146.091,0.031,1.010,0.050,-0.946,0.061,0.000,100.000,33.000,1.000
-145.197,-180.960,-148.594,-125.796,-138.849,-138.313,-153.780,-144.035,0.029,1.012,0.053,-0.854,0.153,-0.122,100.000,34.000,1.000
-143.588,-178.546,-146.538,-124.455,-137.150,-136.524,-151.813,-142.247,0.027,1.011,0.052,-0.793,0.153,-0.153,100.000,35.000,1.000
-141.978,-176.400,-145.018,-123.024,-135.541,-135.183,-149.846,-140.369,0.027,1.010,0.052,-0.671,-0.061,-0.305,100.000,36.000,1.000
-140.280,-174.075,-143.409,-121.772,-134.021,-133.574,-148.237,-138.938,0.026,1.008,0.052,-0.549,-0.183,-0.214,100.000,37.000,1.000
-138.760,-172.198,-141.799,-120.610,-132.412,-131.965,-146.627,-137.329,0.021,1.009,0.051,-0.275,-0.275,-0.153,100.000,38.000,1.000
-137.329,-170.410,-140.280,-119.537,-131.160,-130.713,-145.197,-135.541,0.022,1.008,0.048,0.092,-0.336,-0.244,100.000,39.000,1.000
-135.809,-168.622,-138.670,-118.554,-129.998,-129.730,-143.677,-134.021,0.026,1.007,0.046,0.214,-0.366,-0.214,100.000,40.000,1.000
-134.647,-166.833,-137.419,-117.481,-128.835,-128.388,-142.336,-133.127,0.028,1.007,0.043,0.244,-0.397,-0.305,100.000,41.000,1.000
-133.306,-165.492,-136.077,-116.855,-127.316,-126.869,-140.905,-131.965,0.030,1.008,0.043,0.244,-0.275,-0.397,100.000,42.000,1.000
-131.965,-164.062,-135.541,-116.140,-126.332,-125.974,-139.833,-130.624,0.030,1.007,0.045,0.031,-0.275,-0.458,100.000,43.000,1.000
-131.160,-162.363,-134.289,-115.424,-125.349,-125.170,-138.849,-129.461,0.028,1.005,0.041,-0.031,-0.336,-0.458,100.000,44.000,1.000
-129.908,-160.843,-133.216,-114.977,-124.455,-124.097,-137.866,-128.478,0.027,1.003,0.035,-0.153,-0.336,-0.458,100.000,45.000,1.000
-129.193,-159.770,-132.054,-114.352,-123.471,-123.292,-136.524,-127.226,0.025,0.998,0.032,-0.092,-0.519,-0.580,100.000,46.000,1.000
-128.210,-158.340,-130.713,-113.815,-122.488,-122.219,-135.720,-126.421,0.023,0.995,0.028,0.092,-0.702,-0.549,100.000,47.000,1.000
-127.405,-157.267,-129.908,-113.279,-121.504,-121.415,-134.558,-125.796,0.022,0.994,0.030,0.427,-0.885,-0.488,100.000,48.000,1.000
-126.511,-156.194,-129.104,-112.563,-120.789,-120.610,-133.842,-124.812,0.022,0.996,0.029,0.671,-0.977,-0.366,100.000,49.000,1.000
-125.527,-155.032,-128.478,-112.385,-120.342,-119.895,-132.948,-123.829,0.021,0.996,0.028,0.671,-0.946,-0.458,100.000,50.000,1.000
-124.812,-154.316,-127.763,-111.938,-119.448,-119.180,-131.965,-123.203,0.024,0.994,0.028,0.671,-0.763,-0.610,100.000,51.000,1.000
-124.186,-153.154,-127.047,-111.759,-118.554,-118.375,-131.518,-122.845,0.025,0.991,0.027,0.488,-0.580,-0.671,100.000,52.000,1.000
-123.739,-152.350,-126.600,-111.222,-117.928,-117.928,-130.624,-122.041,0.027,0.989,0.029,0.336,-0.092,-0.732,100.000,53.000,1.000
-123.024,-151.634,-125.974,-110.775,-117.391,-117.302,-129.908,-121.236,0.030,0.987,0.028,0.183,0.305,-0.824,100.000,54.000,1.000
-122.488,-150.561,-125.170,-110.507,-116.497,-116.587,-129.372,-120.610,0.036,0.987,0.032,-0.153,0.549,-0.977,100.000,55.000,1.000
-121.683,-149.846,-124.544,-110.596,-116.140,-116.140,-128.478,-119.895,0.038,0.988,0.031,-0.336,0.916,-0.977,100.000,56.000,1.000
-120.878,-149.399,-123.739,-110.060,-115.871,-115.514,-128.031,-119.537,0.035,0.989,0.028,-0.519,1.129,-0.977,100.000,57.000,1.000
-120.342,-148.505,-123.292,-109.792,-115.424,-114.709,-127.584,-118.911,0.032,0.989,0.024,-0.549,1.312,-1.099,100.000,58.000,1.000
-119.716,-147.969,-122.935,-109.524,-114.977,-114.530,-126.690,-118.554,0.028,0.988,0.028,-0.397,1.251,-1.068,100.000,59.000,1.000
-119.358,-147.343,-122.398,-109.077,-114.441,-114.352,-126.153,-118.196,0.027,0.988,0.030,-0.214,1.007,-0.916,100.000,60.000,1.000
-119.090,-146.806,-122.041,-108.987,-114.083,-113.636,-125.974,-117.481,0.028,0.987,0.030,-0.122,0.793,-0.671,100.000,61.000,1.000
-118.554,-146.270,-121.504,-108.451,-113.636,-113.010,-125.259,-117.034,0.025,0.988,0.030,0.000,0.610,-0.397,100.000,62.000,1.000
-118.017,-145.644,-121.146,-108.629,-112.921,-112.563,-124.812,-116.766,0.025,0.991,0.029,0.061,0.458,-0.092,100.000,63.000,1.000
-117.838,-145.108,-120.699,-108.629,-112.385,-112.474,-124.455,-116.497,0.023,0.989,0.028,-0.061,0.397,0.092,100.000,64.000,1.000
-117.570,-144.303,-120.342,-108.272,-112.385,-111.938,-124.097,-115.871,0.024,0.987,0.032,0.000,0.305,0.336,100.000,65.000,1.000
-116.944,-143.766,-119.805,-107.914,-112.206,-111.669,-123.739,-115.603,0.023,0.987,0.033,-0.122,-0.031,0.519,100.000,66.000,1.000
-116.587,-143.677,-119.716,-107.914,-111.580,-111.491,-123.113,-115.156,0.021,0.989,0.034,-0.183,-0.061,0.824,100.000,67.000,1.000
-116.229,-143.141,-119.358,-107.646,-111.222,-111.043,-122.756,-114.977,0.018,0.989,0.039,-0.183,-0.122,1.160,100.000,68.000,1.000
-115.871,-142.872,-119.001,-107.646,-110.865,-110.596,-122.577,-114.709,0.017,0.990,0.037,0.000,-0.183,1.312,100.000,69.000,1.000
-115.871,-142.515,-118.554,-107.735,-110.775,-110.328,-122.398,-114.352,0.019,0.992,0.037,-0.061,-0.183,1.404,100.000,70.000,1.000
-115.603,-142.068,-118.285,-107.378,-110.596,-110.149,-122.130,-114.173,0.020,0.993,0.037,-0.153,-0.031,1.404,100.000,71.000,1.000
-115.156,-141.799,-118.196,-107.378,-110.239,-109.792,-121.772,-113.904,0.018,0.996,0.037,-0.122,0.092,1.434,100.000,72.000,1.000
-115.067,-141.442,-117.570,-107.020,-110.060,-109.792,-121.683,-113.457,0.020,0.996,0.034,-0.214,0.092,1.404,100.000,73.000,1.000
-114.799,-140.995,-117.302,-106.841,-109.613,-109.434,-121.236,-112.921,0.022,0.996,0.035,-0.122,0.031,1.373,100.000,74.000,1.000
-114.530,-140.816,-117.213,-106.931,-109.434,-109.166,-120.968,-112.742,0.026,0.995,0.033,-0.153,0.122,1.129,100.000,75.000,1.000
-114.173,-140.458,-116.766,-106.841,-109.166,-108.898,-120.699,-112.563,0.028,0.996,0.031,-0.275,0.183,0.854,100.000,76.000,1.000
-113.904,-140.011,-116.587,-106.752,-108.808,-108.898,-120.610,-112.385,0.028,1.001,0.033,-0.427,0.366,0.580,100.000,77.000,1.000
-113.815,-139.833,-116.587,-106.573,-108.540,-108.629,-120.163,-112.027,0.028,0.999,0.034,-0.885,0.366,0.244,100.000,78.000,1.000
-113.636,-139.475,-116.587,-106.394,-108.719,-108.361,-120.163,-112.116,0.026,0.999,0.032,-1.221,0.488,-0.092,100.000,79.000,1.000
-113.457,-139.207,-116.140,-106.394,-108.451,-108.093,-119.895,-112.027,0.026,0.999,0.032,-1.465,0.580,-0.336,100.000,80.000,1.000
-113.189,-139.117,-116.229,-106.484,-108.540,-108.004,-119.627,-111.491,0.024,1.000,0.033,-1.770,0.732,-0.641,100.000,81.000,1.000
-112.921,-138.670,-115.871,-106.126,-108.182,-107.914,-119.537,-111.312,0.023,0.999,0.032,-2.014,0.916,-0.916,100.000,82.000,1.000
-112.832,-138.491,-115.514,-105.858,-107.914,-107.735,-119.448,-111.491,0.025,0.998,0.034,-2.106,0.824,-1.251,100.000,83.000,1.000
-112.563,-138.313,-115.424,-106.037,-107.825,-107.467,-119.090,-111.133,0.025,0.999,0.032,-2.136,0.793,-1.526,100.000,84.000,1.000
-112.742,-138.223,-115.246,-105.858,-107.557,-107.288,-119.180,-110.775,0.025,0.999,0.031,-2.289,0.671,-1.678,100.000,85.000,1.000
-112.563,-137.866,-115.335,-105.858,-107.467,-107.288,-118.911,-110.596,0.029,0.998,0.029,-2.197,0.427,-1.984,100.000,86.000,1.000
-112.474,-137.955,-115.156,-105.679,-107.288,-107.378,-118.911,-110.507,0.029,1.000,0.035,-2.228,0.031,-2.014,100.000,87.000,1.000
-112.116,-137.866,-115.067,-105.679,-107.020,-106.931,-118.554,-110.418,0.028,0.999,0.039,-2.258,-0.244,-2.136,100.000,88.000,1.000
-111.759,-137.597,-114.977,-105.679,-107.020,-106.931,-118.464,-110.596,0.027,0.997,0.039,-2.075,-0.732,-2.136,100.000,89.000,1.000
-111.759,-137.329,-114.620,-105.679,-107.110,-106.663,-118.017,-110.596,0.028,0.995,0.039,-1.678,-1.221,-1.984,100.000,90.000,1.000
-111.938,-136.971,-114.262,-105.768,-106.931,-106.573,-117.928,-110.328,0.033,0.996,0.042,-1.251,-1.648,-1.831,100.000,91.000,1.000
-111.848,-136.882,-114.173,-105.590,-106.841,-106.394,-118.017,-110.149,0.037,0.994,0.041,-0.763,-2.014,-1.617,100.000,92.000,1.000
-111.491,-136.614,-114.083,-105.321,-106.931,-106.305,-117.928,-109.702,0.041,0.991,0.041,-0.214,-2.197,-1.495,100.000,93.000,1.000
-111.491,-136.435,-114.173,-105.411,-106.752,-106.305,-117.660,-109.613,0.044,0.990,0.038,0.244,-2.228,-1.099,100.000,94.000,1.000
-111.401,-136.524,-114.083,-105.232,-106.484,-106.305,-117.481,-109.702,0.049,0.991,0.034,0.610,-2.106,-0.824,100.000,95.000,1.000
-111.222,-136.256,-114.083,-105.143,-106.037,-106.126,-117.660,-109.792,0.048,0.994,0.033,0.946,-1.953,-0.488,100.000,96.000,1.000
-111.043,-136.256,-113.815,-105.143,-106.305,-106.037,-117.481,-109.702,0.042,0.994,0.032,1.312,-1.801,-0.275,100.000,97.000,1.000
-110.954,-136.077,-113.726,-105.232,-106.215,-106.037,-117.391,-109.702,0.035,0.993,0.029,1.465,-1.648,-0.092,100.000,98.000,1.000
-110.865,-135.809,-113.904,-105.053,-106.215,-105.858,-117.302,-109.613,0.032,0.991,0.028,1.556,-1.556,0.031,100.000,99.000,1.000
-110.775,-135.630,-113.547,-104.964,-106.037,-105.590,-117.213,-109.077,0.028,0.987,0.031,1.709,-1.343,0.427,100.000,100.000,1.000
-110.596,-135.809,-113.636,-105.053,-106.037,-105.679,-117.213,-108.987,0.024,0.984,0.037,1.801,-1.129,0.732,100.000,101.000,1.000
-110.507,-135.720,-113.279,-105.143,-105.858,-105.679,-117.034,-108.987,0.017,0.984,0.036,1.740,-0.732,1.129,100.000,102.000,1.000
-110.507,-135.541,-113.189,-104.964,-105.768,-105.679,-116.855,-109.255,0.014,0.990,0.032,1.404,-0.244,1.404,100.000,103.000,1.000
-110.507,-135.630,-113.368,-104.785,-105.768,-105.500,-116.944,-108.987,0.017,0.991,0.031,1.129,0.061,1.373,100.000,104.000,1.000
-110.328,-135.362,-113.457,-104.696,-105.679,-105.321,-116.676,-108.719,0.021,0.996,0.028,0.732,0.214,1.251,100.000,105.000,1.000
-110.418,-135.183,-113.279,-104.785,-105.590,-105.411,-116.587,-108.719,0.021,0.998,0.027,0.092,0.275,0.946,100.000,106.000,1.000
-110.507,-134.915,-113.189,-104.696,-105.590,-105.232,-116.587,-108.808,0.018,1.000,0.027,-0.488,0.092,0.519,100.000,107.000,1.000
-110.507,-135.094,-113.010,-104.785,-105.590,-105.143,-116.497,-108.898,0.014,0.998,0.027,-1.099,-0.122,0.122,100.000,108.000,1.000
-110.507,-135.183,-112.921,-104.696,-105.590,-105.143,-116.318,-108.719,0.013,0.995,0.032,-1.251,-0.610,-0.366,100.000,109.000,1.000
-110.328,-135.094,-112.832,-104.785,-105.411,-104.964,-116.318,-108.451,0.012,0.995,0.032,-1.404,-1.160,-0.610,100.000,110.000,1.000
-110.149,-134.915,-112.742,-104.696,-105.411,-105.053,-116.318,-108.451,0.014,0.994,0.032,-1.434,-1.617,-0.946,100.000,111.000,1.000
-110.149,-134.915,-112.742,-104.696,-105.143,-105.053,-116.408,-108.272,0.020,0.992,0.034,-1.465,-2.014,-1.190,100.000,112.000,1.000
-110.239,-134.736,-112.832,-104.874,-105.143,-104.785,-116.408,-108.182,0.026,0.994,0.035,-1.343,-2.350,-1.282,100.000,113.000,1.000
-109.881,-134.915,-112.832,-104.964,-105.053,-104.874,-116.318,-108.272,0.034,0.995,0.040,-1.343,-2.594,-1.434,100.000,114.000,1.000
-109.971,-134.826,-112.742,-104.696,-104.964,-104.964,-116.140,-108.361,0.036,0.999,0.040,-1.221,-2.655,-1.373,100.000,115.000,1.000
-109.971,-134.826,-112.653,-104.696,-104.964,-104.874,-116.050,-108.361,0.038,0.997,0.037,-0.977,-2.625,-1.312,100.000,116.000,1.000
-109.971,-134.915,-112.742,-104.696,-105.143,-104.606,-116.140,-108.272,0.040,0.998,0.039,-0.763,-2.411,-1.282,100.000,117.000,1.000
-110.060,-134.647,-112.563,-104.606,-104.964,-104.517,-115.961,-108.361,0.039,0.997,0.038,-0.488,-2.075,-1.160,100.000,118.000,1.000
-109.792,-134.468,-112.385,-104.696,-105.143,-104.606,-115.871,-108.093,0.034,0.997,0.038,-0.153,-1.740,-1.038,100.000,119.000,1.000
-109.613,-134.647,-112.474,-104.696,-104.874,-104.517,-115.782,-107.914,0.028,0.996,0.040,0.214,-1.312,-0.732,100.000,120.000,1.000
-109.524,-134.289,-112.563,-104.785,-104.696,-104.517,-115.871,-108.093,0.025,0.999,0.041,0.336,-1.068,-0.519,100.000,121.000,1.000
-109.702,-134.200,-112.295,-104.427,-104.785,-104.696,-115.693,-107.914,0.018,0.995,0.042,0.458,-0.763,-0.153,100.000,122.000,1.000
-109.613,-134.289,-112.385,-104.249,-104.785,-104.606,-115.782,-108.004,0.017,0.994,0.038,0.732,-0.427,0.061,100.000,123.000,1.000
-109.613,-134.379,-112.385,-104.517,-104.874,-104.606,-115.871,-107.825,0.016,0.997,0.042,0.824,-0.122,0.458,100.000,124.000,1.000
-109.434,-134.468,-112.116,-104.606,-104.964,-104.606,-115.693,-108.004,0.016,0.998,0.040,0.824,-0.031,0.488,100.000,125.000,1.000
-109.255,-134.289,-112.116,-104.606,-104.696,-104.517,-115.782,-108.093,0.016,0.999,0.041,0.885,0.061,0.641,100.000,126.000,1.000
-109.345,-134.289,-112.116,-104.427,-104.785,-104.517,-115.693,-107.914,0.016,1.000,0.039,0.702,0.000,0.702,100.000,127.000,1.000
-109.524,-134.200,-111.938,-104.338,-104.785,-104.338,-115.514,-107.825,0.021,0.997,0.039,0.458,-0.031,0.610,100.000,128.000,1.000
-109.524,-133.932,-111.938,-104.249,-104.785,-104.338,-115.514,-107.646,0.029,1.001,0.033,0.519,-0.031,0.275,100.000,129.000,1.000
-109.434,-134.021,-112.027,-104.338,-104.606,-104.070,-115.514,-107.825,0.025,1.005,0.036,0.244,-0.122,-0.061,100.000,130.000,1.000
-109.255,-134.200,-111.938,-104.517,-104.517,-104.249,-115.514,-107.825,0.021,1.004,0.032,-0.061,-0.275,-0.366,100.000,131.000,1.000
-109.255,-134.200,-111.938,-104.517,-104.517,-104.517,-115.424,-107.646,0.019,1.000,0.031,-0.275,-0.580,-0.549,100.000,132.000,1.000
-109.345,-134.110,-112.206,-104.696,-104.517,-104.338,-115.424,-107.825,0.018,0.996,0.038,-0.366,-0.885,-0.732,100.000,133.000,1.000
-109.166,-134.021,-112.027,-104.427,-104.427,-104.249,-115.424,-107.825,0.021,0.992,0.037,-0.488,-1.251,-0.580,100.000,134.000,1.000
-109.166,-134.021,-112.116,-104.427,-104.517,-104.159,-115.514,-107.646,0.022,0.992,0.039,-0.366,-1.526,-0.397,100.000,135.000,1.000
-109.166,-134.021,-112.027,-104.427,-104.338,-104.159,-115.514,-107.646,0.023,0.992,0.038,-0.153,-1.709,-0.275,100.000,136.000,1.000
-109.255,-133.842,-111.759,-104.517,-104.338,-104.249,-115.514,-107.557,0.027,0.991,0.038,0.214,-1.617,0.092,100.000,137.000,1.000
-108.987,-134.021,-111.580,-104.517,-104.338,-104.338,-115.424,-107.646,0.035,0.993,0.035,0.580,-1.617,0.397,100.000,138.000,1.000
-109.077,-133.842,-111.938,-104.517,-104.338,-104.338,-115.246,-107.735,0.037,0.992,0.033,0.916,-1.404,0.610,100.000,139.000,1.000
-109.166,-133.842,-112.027,-104.070,-104.159,-104.070,-115.514,-107.467,0.036,0.994,0.032,1.373,-1.251,0.793,100.000,140.000,1.000
-108.987,-133.753,-111.580,-104.070,-104.338,-104.249,-115.514,-107.378,0.031,0.996,0.031,1.740,-1.129,0.885,100.000,141.000,1.000
-109.077,-133.842,-111.848,-104.249,-104.427,-104.249,-115.424,-107.467,0.030,0.994,0.031,1.984,-1.129,0.854,100.000,142.000,1.000
-108.987,-133.842,-111.759,-104.249,-104.249,-104.338,-115.514,-107.646,0.028,0.995,0.033,2.289,-0.916,0.977,100.000,143.000,1.000
-109.166,-133.753,-111.669,-104.249,-104.338,-104.249,-115.335,-107.467,0.025,0.992,0.031,2.441,-0.641,1.099,100.000,144.000,1.000
-108.987,-133.753,-111.848,-104.070,-104.338,-104.249,-115.424,-107.467,0.018,0.991,0.031,2.380,-0.458,1.099,100.000,145.000,1.000
-109.077,-133.663,-111.848,-104.070,-104.517,-104.159,-115.424,-107.467,0.014,0.990,0.031,2.319,-0.366,1.160,100.000,146.000,1.000
-109.166,-133.753,-111.759,-104.159,-104.517,-104.249,-115.424,-107.378,0.010,0.990,0.031,2.075,-0.275,1.129,100.000,147.000,1.000
-109.166,-133.574,-111.669,-104.249,-104.249,-104.249,-115.246,-107.467,0.012,0.990,0.031,1.801,-0.427,0.946,100.000,148.000,1.000
-108.808,-133.395,-111.669,-104.159,-104.338,-104.249,-115.067,-107.378,0.015,0.992,0.030,1.709,-0.458,0.702,100.000,149.000,1.000
-108.987,-133.663,-111.848,-104.249,-104.338,-104.249,-115.156,-107.467,0.018,0.992,0.033,1.404,-0.488,0.275,100.000,150.000,1.000
-109.166,-133.663,-111.759,-104.159,-104.338,-104.070,-115.246,-107.378,0.021,0.989,0.036,0.977,-0.519,-0.031,100.000,151.000,1.000
-108.987,-133.485,-111.580,-104.159,-104.338,-103.980,-115.246,-107.467,0.022,0.990,0.035,0.549,-0.458,-0.549,100.000,152.000,1.000
-108.898,-133.395,-111.848,-104.070,-104.338,-103.891,-115.156,-107.378,0.017,0.989,0.031,-0.214,-0.610,-0.885,100.000,153.000,1.000
-108.987,-133.574,-111.669,-103.891,-104.249,-103.980,-115.156,-107.467,0.018,0.986,0.030,-0.793,-0.885,-1.129,100.000,154.000,1.000
-108.898,-133.485,-111.669,-104.070,-103.980,-104.070,-115.156,-107.467,0.018,0.985,0.030,-1.190,-1.282,-1.221,100.000,155.000,1.000
-108.987,-133.395,-111.669,-104.338,-104.249,-104.070,-115.246,-107.378,0.018,0.982,0.031,-1.526,-1.465,-1.282,100.000,156.000,1.000
-109.077,-133.663,-111.669,-104.249,-104.338,-103.891,-115.246,-107.646,0.018,0.984,0.031,-1.740,-1.526,-1.221,100.000,157.000,1.000
-108.898,-133.395,-111.580,-104.070,-104.338,-104.070,-115.156,-107.378,0.022,0.984,0.035,-1.740,-1.617,-1.068,100.000,158.000,1.000
-108.719,-133.395,-111.848,-103.802,-104.159,-104.070,-115.335,-107.288,0.028,0.986,0.035,-1.678,-1.648,-0.885,100.000,159.000,1.000
-108.808,-133.485,-111.848,-103.802,-104.249,-104.159,-115.067,-107.467,0.033,0.985,0.034,-1.648,-1.617,-0.671,100.000,160.000,1.000
-108.808,-133.395,-111.580,-103.444,-104.249,-104.070,-114.888,-107.378,0.037,0.989,0.034,-1.617,-1.587,-0.366,100.000,161.000,1.000
-108.808,-133.395,-111.491,-103.265,-104.338,-103.891,-114.977,-107.288,0.037,0.993,0.032,-1.495,-1.343,-0.244,100.000,162.000,1.000
-108.987,-133.485,-111.759,-102.997,-104.159,-103.980,-115.246,-107.288,0.037,0.993,0.033,-1.282,-1.129,-0.244,100.000,163.000,1.000
-109.166,-133.574,-111.491,-102.907,-104.070,-103.980,-115.067,-107.110,0.037,0.991,0.033,-1.007,-0.793,-0.183,100.000,164.000,1.000
-108.987,-133.485,-111.580,-102.729,-104.249,-104.070,-114.888,-107.378,0.033,0.994,0.034,-0.824,-0.397,-0.031,100.000,165.000,1.000
-108.719,-133.574,-111.669,-102.639,-104.249,-103.980,-115.067,-107.378,0.031,0.996,0.036,-0.610,-0.153,0.000,100.000,166.000,1.000
-108.808,-133.485,-111.938,-102.550,-103.980,-103.980,-115.067,-107.288,0.026,0.996,0.034,-0.366,0.000,-0.031,100.000,167.000,1.000
-108.898,-133.306,-111.759,-102.282,-103.980,-104.249,-114.799,-107.378,0.028,1.000,0.037,-0.061,0.214,-0.092,100.000,168.000,1.000
-109.077,-133.395,-111.938,-102.013,-103.980,-104.070,-114.977,-107.467,0.030,1.001,0.037,-0.061,0.183,-0.153,100.000,169.000,1.000
-109.077,-133.574,-111.848,-101.566,-104.070,-104.070,-114.977,-107.199,0.026,1.000,0.040,0.061,0.183,-0.214,100.000,170.000,1.000
-108.898,-133.395,-111.401,-101.388,-104.159,-103.980,-114.799,-107.199,0.022,1.001,0.044,0.092,0.305,-0.305,100.000,171.000,1.000
-108.719,-133.306,-111.401,-101.388,-104.070,-103.891,-114.709,-107.199,0.017,0.999,0.047,-0.031,0.397,-0.488,100.000,172.000,1.000
-108.719,-133.574,-111.401,-101.030,-103.891,-104.070,-114.620,-107.288,0.017,0.996,0.044,-0.214,0.366,-0.580,100.000,173.000,1.000
-108.719,-133.395,-111.491,-100.762,-104.070,-103.891,-114.977,-107.199,0.017,0.993,0.039,-0.214,0.214,-0.641,100.000,174.000,1.000
-108.808,-133.306,-111.669,-100.493,-104.159,-103.802,-114.709,-107.378,0.017,0.991,0.035,0.092,0.305,-0.671,100.000,175.000,1.000
-108.898,-133.306,-111.669,-100.225,-103.980,-103.802,-114.799,-107.378,0.021,0.993,0.035,0.427,0.183,-0.824,100.000,176.000,1.000
-108.808,-133.306,-111.669,-99.868,-103.980,-103.802,-114.530,-107.378,0.025,0.996,0.034,0.488,0.092,-0.885,100.000,177.000,1.000
-108.808,-133.306,-111.491,-99.599,-104.070,-103.891,-114.709,-107.110,0.034,0.999,0.034,0.458,0.153,-0.732,100.000,178.000,1.000
-108.719,-133.216,-111.580,-99.599,-104.070,-103.802,-114.530,-106.931,0.039,0.997,0.031,0.122,0.244,-0.702,100.000,179.000,1.000
-108.629,-133.127,-111.759,-99.331,-104.159,-103.712,-114.441,-107.110,0.041,0.994,0.030,-0.183,0.275,-0.732,100.000,180.000,1.000
-108.808,-133.395,-111.669,-98.884,-104.249,-103.891,-114.530,-107.199,0.041,0.998,0.025,-0.122,0.397,-0.793,100.000,181.000,1.000
-109.077,-133.306,-111.491,-98.705,-104.249,-103.891,-114.530,-107.199,0.038,0.996,0.024,-0.427,0.488,-0.885,100.000,182.000,1.000
-109.077,-133.306,-111.222,-98.526,-104.070,-103.802,-114.530,-107.199,0.035,0.995,0.026,-0.549,0.458,-1.099,100.000,183.000,1.000
-108.987,-133.306,-111.580,-98.526,-104.070,-103.891,-114.352,-107.288,0.036,0.992,0.021,-0.549,0.305,-1.312,100.000,184.000,1.000
-108.719,-133.574,-111.580,-98.079,-104.249,-103.891,-114.530,-107.110,0.032,0.994,0.023,-0.397,0.092,-1.434,100.000,185.000,1.000
-108.629,-133.574,-111.491,-97.632,-104.159,-103.623,-114.352,-107.110,0.032,0.995,0.026,-0.305,-0.061,-1.556,100.000,186.000,1.000
-108.719,-133.395,-111.491,-97.454,-104.249,-103.623,-114.173,-107.020,0.025,0.996,0.029,-0.214,-0.214,-1.740,100.000,187.000,1.000
-108.987,-133.485,-111.491,-97.543,-104.070,-103.891,-114.083,-107.199,0.020,0.994,0.030,-0.336,-0.336,-1.862,100.000,188.000,1.000
-108.719,-133.306,-111.491,-97.096,-104.070,-103.891,-114.083,-107.020,0.019,0.992,0.030,-0.519,-0.488,-1.862,100.000,189.000,1.000
-108.719,-133.127,-111.491,-96.828,-103.980,-103.891,-114.083,-107.288,0.016,0.991,0.029,-0.549,-0.488,-1.862,100.000,190.000,1.000
-108.808,-133.306,-111.491,-96.470,-103.980,-103.802,-113.904,-107.110,0.014,0.989,0.032,-0.580,-0.610,-1.740,100.000,191.000,1.000
-108.808,-133.306,-111.580,-96.381,-103.891,-103.802,-113.994,-107.199,0.010,0.989,0.030,-0.641,-0.702,-1.648,100.000,192.000,1.000
-108.719,-133.395,-111.669,-96.291,-104.070,-103.802,-113.904,-107.110,0.011,0.989,0.034,-0.610,-0.763,-1.678,100.000,193.000,1.000
-108.719,-133.306,-111.580,-96.113,-104.159,-103.802,-113.636,-90.837,0.011,0.989,0.035,-0.610,-0.793,-1.556,100.000,194.000,1.000
-108.272,-133.306,-99.421,-96.113,-103.891,-89.943,-98.526,23.514,0.011,0.989,0.036,-0.610,-0.793,-1.404,100.000,195.000,1.000
-88.692,-124.007,-16.272,-95.576,-94.503,-3.308,-7.778,188.470,0.010,0.991,0.035,-0.793,-0.793,-1.129,100.000,196.000,1.000
-8.404,-57.310,122.041,-67.055,-14.305,125.259,149.936,349.313,0.011,0.990,0.043,-0.885,-0.580,-0.885,100.000,197.000,1.000
135.273,84.847,289.142,40.591,148.773,292.540,333.756,528.932,0.016,0.991,0.040,-1.038,-0.488,-0.641,100.000,198.000,1.000
289.589,237.465,440.151,195.891,310.242,446.051,491.023,686.288,0.017,0.991,0.044,-0.946,-0.214,-0.519,100.000,199.000,1.000
360.042,306.487,510.424,268.221,382.215,515.789,561.923,757.635,0.017,0.990,0.047,-1.007,-0.092,-0.366,100.000,200.000,1.000
443.459,388.742,595.808,351.995,466.973,598.848,646.859,843.108,0.018,0.990,0.044,-0.946,-0.031,-0.122,100.000,201.000,1.000
584.185,527.144,738.770,493.884,610.024,738.859,789.285,986.964,0.021,0.994,0.042,-0.854,-0.092,0.061,100.000,202.000,1.000
726.164,666.887,882.715,636.578,753.790,880.033,932.694,1131.714,0.019,0.995,0.044,-0.916,-0.244,0.061,100.000,203.000,1.000
783.831,723.928,941.456,694.871,812.262,937.343,991.345,1191.169,0.023,0.996,0.040,-0.916,-0.366,0.214,100.000,204.000,1.000
836.224,775.516,994.921,747.711,864.655,989.646,1044.631,1245.439,0.022,0.993,0.036,-0.824,-0.549,0.366,100.000,205.000,1.000
943.601,881.910,1104.713,855.535,972.927,1097.918,1155.049,1357.198,0.021,0.995,0.039,-0.671,-0.824,0.488,100.000,206.000,1.000
1064.927,1002.521,1228.720,976.950,1095.057,1220.495,1280.576,1483.620,0.021,0.994,0.036,-0.580,-1.099,0.671,100.000,207.000,1.000
1109.809,1047.224,1274.586,1022.190,1140.118,1266.003,1327.425,1530.558,0.024,0.994,0.030,-0.641,-1.312,0.702,100.000,208.000,1.000
1133.770,1071.185,1298.994,1046.330,1164.168,1290.500,1352.638,1556.129,0.028,0.998,0.031,-0.519,-1.617,0.824,100.000,209.000,1.000
1213.521,1150.489,1381.606,1126.796,1244.098,1372.487,1436.681,1640.171,0.031,0.999,0.034,-0.580,-1.648,0.854,100.000,210.000,1.000
1330.644,1268.059,1502.574,1244.813,1362.205,1493.722,1560.867,1764.268,0.037,1.001,0.031,-0.641,-1.678,0.977,100.000,211.000,1.000
1390.189,1327.873,1564.265,1304.448,1422.018,1555.503,1623.988,1827.389,0.037,1.005,0.031,-0.580,-1.373,1.007,100.000,212.000,1.000
1408.249,1345.754,1582.951,1322.687,1439.721,1574.010,1643.121,1846.433,0.032,1.003,0.034,-0.488,-1.007,0.854,100.000,213.000,1.000
1473.785,1412.005,1650.989,1388.848,1505.614,1642.227,1713.306,1915.902,0.029,1.001,0.038,-0.275,-0.549,0.702,100.000,214.000,1.000
1590.014,1530.290,1771.599,1506.597,1622.647,1764.089,1837.135,2039.016,0.027,1.000,0.041,-0.122,-0.183,0.641,100.000,215.000,1.000
1672.358,1613.885,1857.072,1590.103,1705.349,1850.188,1924.575,2126.098,0.020,1.000,0.038,-0.061,0.336,0.427,100.000,216.000,1.000
1695.335,1637.310,1880.765,1613.617,1728.148,1874.239,1948.715,2150.327,0.016,0.998,0.037,0.031,0.885,0.183,100.000,217.000,1.000
1753.092,1696.229,1940.221,1671.911,1785.815,1934.767,2009.601,2210.766,0.019,0.998,0.036,-0.031,1.221,0.031,100.000,218.000,1.000
1865.834,1810.581,2056.361,1785.457,1898.557,2051.890,2127.529,2328.068,0.021,0.996,0.034,-0.153,1.495,-0.183,100.000,219.000,1.000
1957.298,1903.564,2150.238,1878.083,1990.289,2146.662,2223.641,2422.840,0.020,0.997,0.032,-0.214,1.770,-0.397,100.000,220.000,1.000
1964.182,1910.895,2157.390,1885.325,1997.263,2153.904,2230.704,2430.171,0.016,0.998,0.031,-0.397,1.984,-0.488,100.000,221.000,1.000
1983.583,1930.565,2177.328,1905.173,2017.021,2174.199,2251.268,2450.467,0.013,0.997,0.031,-0.549,1.831,-0.732,100.000,222.000,1.000
2067.447,2015.591,2262.980,1990.021,2101.064,2260.745,2338.082,2536.655,0.016,0.995,0.030,-0.824,1.617,-0.763,100.000,223.000,1.000
2148.271,2097.577,2345.771,2071.649,2181.709,2343.715,2421.409,2619.535,0.016,0.996,0.029,-1.007,1.190,-0.885,100.000,224.000,1.000
2127.439,2076.835,2324.671,2050.907,2161.235,2322.436,2399.952,2598.256,0.016,0.995,0.026,-0.977,0.671,-0.916,100.000,225.000,1.000
2093.822,2042.592,2290.339,2017.200,2127.618,2287.835,2365.619,2564.013,0.018,0.994,0.029,-0.763,0.000,-1.038,100.000,226.000,1.000
2125.740,2074.868,2323.151,2049.744,2159.894,2320.826,2398.789,2596.736,0.021,0.995,0.035,-0.519,-0.488,-1.068,100.000,227.000,1.000
2195.388,2145.589,2393.782,2119.929,2229.721,2392.263,2470.494,2667.726,0.023,0.995,0.036,-0.427,-0.824,-0.916,100.000,228.000,1.000
2181.352,2131.641,2379.656,2105.892,2215.684,2377.958,2455.831,2653.510,0.023,0.993,0.038,-0.336,-1.099,-0.854,100.000,229.000,1.000
2135.307,2085.060,2332.807,2059.311,2169.550,2330.929,2408.714,2606.571,0.022,0.991,0.042,-0.153,-1.282,-0.916,100.000,230.000,1.000
2146.751,2096.504,2344.519,2071.023,2180.905,2342.642,2420.336,2618.105,0.022,0.989,0.042,0.153,-1.404,-0.732,100.000,231.000,1.000
2218.992,2170.086,2418.101,2144.248,2253.682,2416.581,2494.276,2692.044,0.022,0.986,0.042,0.610,-1.282,-0.702,100.000,232.000,1.000
2235.890,2186.984,2435.089,2161.056,2270.580,2433.837,2511.353,2709.121,0.021,0.987,0.045,1.038,-1.343,-0.519,100.000,233.000,1.000
2195.031,2145.589,2394.140,2120.197,2229.631,2392.173,2470.047,2667.636,0.019,0.989,0.047,1.373,-1.190,-0.183,100.000,234.000,1.000
2195.388,2146.125,2394.229,2120.197,2230.078,2392.441,2470.136,2668.173,0.015,0.990,0.044,1.587,-1.007,0.000,100.000,235.000,1.000
2269.865,2221.763,2469.779,2195.925,2305.001,2468.795,2546.668,2744.079,0.012,0.990,0.043,1.648,-0.824,0.122,100.000,236.000,1.000
2312.869,2265.394,2513.677,2239.913,2348.632,2513.141,2590.567,2788.157,0.010,0.988,0.041,1.648,-0.610,0.214,100.000,237.000,1.000
2275.497,2227.217,2475.143,2201.736,2310.455,2474.606,2552.212,2749.980,0.011,0.988,0.037,1.648,-0.397,0.275,100.000,238.000,1.000
2254.397,2206.117,2453.775,2180.368,2289.087,2452.881,2530.665,2728.075,0.017,0.989,0.033,1.526,-0.275,0.275,100.000,239.000,1.000
2319.754,2272.189,2519.936,2246.440,2354.712,2519.757,2597.541,2794.773,0.022,0.987,0.032,1.282,-0.153,0.305,100.000,240.000,1.000
2392.978,2345.860,2593.875,2320.558,2428.294,2594.412,2671.570,2869.070,0.025,0.987,0.029,0.793,0.000,0.305,100.000,241.000,1.000
2361.775,2314.210,2562.762,2288.998,2397.359,2562.762,2640.099,2837.599,0.026,0.987,0.025,0.336,0.153,0.214,100.000,242.000,1.000
2326.370,2278.626,2526.999,2253.145,2361.775,2526.552,2604.247,2801.389,0.028,0.988,0.029,-0.275,0.244,0.122,100.000,243.000,1.000
2388.508,2342.105,2590.299,2316.267,2424.717,2590.120,2667.815,2864.689,0.027,0.987,0.024,-0.702,0.305,0.122,100.000,244.000,1.000
2488.018,2442.867,2691.240,2417.475,2524.853,2691.687,2768.845,2965.540,0.027,0.989,0.020,-1.251,0.305,-0.122,100.000,245.000,1.000
2472.371,2426.774,2675.325,2401.829,2508.849,2675.862,2752.751,2949.536,0.029,0.987,0.023,-1.526,0.336,-0.061,100.000,246.000,1.000
2417.028,2370.447,2619.088,2345.235,2452.702,2619.088,2696.246,2893.299,0.029,0.987,0.022,-1.556,0.397,-0.122,100.000,247.000,1.000
2457.887,2411.485,2660.215,2386.630,2493.650,2660.662,2737.731,2934.695,0.029,0.985,0.022,-1.587,0.305,-0.214,100.000,248.000,1.000
2577.335,2531.916,2780.915,2507.687,2614.081,2781.630,2858.520,3055.126,0.029,0.984,0.023,-1.678,0.153,-0.183,100.000,249.000,1.000
2589.047,2543.897,2792.627,2519.399,2625.972,2793.789,2870.322,3067.196,0.026,0.987,0.026,-1.740,0.061,-0.122,100.000,250.000,1.000
2536.655,2491.236,2739.788,2466.292,2573.133,2740.682,2817.393,3014.446,0.025,0.989,0.027,-1.801,-0.153,0.153,100.000,251.000,1.000
2563.119,2517.790,2766.073,2493.024,2599.597,2767.236,2844.215,3041.089,0.025,0.988,0.033,-1.801,-0.366,0.366,100.000,252.000,1.000
2721.370,2677.382,2925.933,2653.689,2759.546,2927.542,3003.449,3200.681,0.023,0.988,0.036,-1.526,-0.519,0.519,100.000,253.000,1.000
2831.698,2788.514,3036.708,2765.805,2870.948,3039.033,3114.403,3311.545,0.021,0.991,0.035,-1.312,-0.580,0.763,100.000,254.000,1.000
2848.328,2804.876,3052.980,2782.524,2887.845,3055.305,3131.032,3327.817,0.018,0.994,0.038,-1.068,-0.610,0.946,100.000,255.000,1.000
2905.637,2862.275,3110.826,2840.192,2945.424,3113.062,3188.253,3385.306,0.016,0.999,0.039,-0.885,-0.641,1.007,100.000,256.000,1.000
3092.230,3049.314,3297.777,3029.019,3133.715,3300.637,3374.756,3572.167,0.015,0.999,0.041,-0.854,-0.610,1.038,100.000,257.000,1.000
3267.378,3224.463,3472.746,3206.403,3310.651,3476.412,3549.278,3747.583,0.011,1.000,0.045,-0.702,-0.427,1.129,100.000,258.000,1.000
3326.297,3283.382,3531.665,3266.037,3370.107,3535.688,3608.198,3806.592,0.008,1.000,0.041,-0.702,-0.488,1.099,100.000,259.000,1.000
3356.696,3313.512,3562.242,3296.704,3400.863,3565.998,3638.596,3836.901,0.007,1.000,0.041,-0.580,-0.427,1.038,100.000,260.000,1.000
3494.561,3451.199,3700.555,3435.821,3540.069,3704.221,3776.104,3975.213,0.009,1.001,0.039,-0.427,-0.458,1.099,100.000,261.000,1.000
3651.381,3607.661,3857.375,3593.803,3698.141,3861.219,3932.298,4132.033,0.016,1.000,0.035,-0.336,-0.519,1.038,100.000,262.000,1.000
3662.825,3619.463,3868.908,3605.426,3709.853,3872.753,3943.921,4143.388,0.025,1.002,0.033,-0.244,-0.732,0.854,100.000,263.000,1.000
3625.095,3582.001,3831.178,3567.875,3672.213,3834.844,3906.281,4105.837,0.031,1.002,0.034,-0.244,-0.732,0.793,100.000,264.000,1.000
3702.164,3658.981,3908.605,3645.838,3750.176,3912.449,3983.439,4183.442,0.038,1.002,0.031,-0.305,-0.763,0.488,100.000,265.000,1.000
3857.822,3813.744,4064.084,3802.300,3906.817,4067.839,4138.470,4339.100,0.039,1.000,0.035,-0.336,-0.732,0.305,100.000,266.000,1.000
3914.774,3870.518,4121.125,3859.789,3964.216,4124.702,4195.512,4396.231,0.035,1.002,0.036,-0.427,-0.702,0.275,100.000,267.000,1.000
3913.165,3868.729,4119.337,3857.822,3962.428,4123.092,4193.813,4394.532,0.031,1.004,0.036,-0.488,-0.610,0.031,100.000,268.000,1.000
4002.393,3957.958,4208.655,3947.497,4052.193,4212.231,4282.952,4483.939,0.028,1.004,0.035,-0.458,-0.641,-0.031,100.000,269.000,1.000
4173.160,4128.010,4379.512,4119.516,4224.480,4383.088,4453.541,4655.243,0.025,1.000,0.035,-0.458,-0.641,-0.366,100.000,270.000,1.000
4237.802,4192.562,4444.421,4184.604,4289.568,4447.998,4518.540,4720.152,0.023,0.999,0.036,-0.366,-0.671,-0.427,100.000,271.000,1.000
4199.088,4153.759,4405.350,4145.265,4250.318,4409.016,4479.647,4681.260,0.021,0.998,0.042,-0.397,-0.702,-0.427,100.000,272.000,1.000
4241.289,4195.959,4448.266,4187.733,4293.145,4451.395,4522.026,4723.907,0.017,0.999,0.046,-0.366,-0.549,-0.366,100.000,273.000,1.000
4450.590,4404.725,4657.657,4398.466,4503.787,4660.875,4731.507,4933.477,0.016,1.001,0.048,-0.427,-0.458,-0.427,100.000,274.000,1.000
4593.910,4548.133,4801.513,4542.500,4647.911,4804.642,4875.452,5077.780,0.017,1.001,0.049,-0.580,-0.427,-0.427,100.000,275.000,1.000
4589.797,4544.110,4798.115,4538.566,4644.156,4801.244,4871.876,5074.114,0.015,1.000,0.050,-0.244,-0.397,-0.458,100.000,276.000,1.000
4636.915,4590.512,4844.428,4585.773,4691.542,4848.004,4918.904,5121.053,0.014,0.998,0.047,-0.122,-0.427,-0.488,100.000,277.000,1.000
4845.769,4798.920,5054.266,4795.433,4901.559,5057.306,5128.295,5330.623,0.015,0.999,0.047,0.031,-0.549,-0.641,100.000,278.000,1.000
5018.950,4971.386,5227.716,4968.972,5075.456,5230.398,5302.013,5504.341,0.018,1.000,0.048,0.275,-0.610,-0.580,100.000,279.000,1.000
5026.639,4979.075,5235.315,4976.750,5083.234,5238.087,5309.702,5512.208,0.021,0.999,0.049,0.427,-0.336,-0.549,100.000,280.000,1.000
5041.928,4994.632,5250.693,4992.396,5098.970,5253.554,5325.348,5528.123,0.021,0.996,0.048,0.427,-0.153,-0.519,100.000,281.000,1.000
5238.355,5190.701,5447.835,5189.360,5296.291,5450.428,5522.669,5725.444,0.023,0.998,0.045,0.427,-0.092,-0.458,100.000,282.000,1.000
5453.021,5405.814,5664.021,5405.099,5512.298,5665.989,5738.677,5941.630,0.026,0.998,0.040,0.366,-0.122,-0.427,100.000,283.000,1.000
5502.821,5455.704,5713.821,5455.346,5562.545,5716.235,5788.745,5992.056,0.030,0.998,0.035,0.549,-0.031,-0.336,100.000,284.000,1.000
5502.374,5454.988,5713.375,5454.810,5561.919,5715.431,5788.208,5991.698,0.037,0.998,0.033,0.702,0.092,-0.427,100.000,285.000,1.000
5668.224,5620.391,5879.761,5620.838,5728.216,5881.817,5955.042,6158.084,0.039,0.995,0.031,0.977,0.183,-0.214,100.000,286.000,1.000
5920.173,5871.982,6132.335,5873.413,5981.148,6134.034,6207.884,6410.838,0.035,0.994,0.028,1.190,0.244,-0.061,100.000,287.000,1.000
6022.186,5974.085,6234.796,5975.784,6083.609,6236.316,6310.613,6513.924,0.032,0.993,0.028,1.343,0.153,0.183,100.000,288.000,1.000
6012.798,5964.966,6225.498,5966.396,6074.400,6226.928,6301.314,6504.626,0.031,0.994,0.029,1.373,0.153,0.366,100.000,289.000,1.000
6147.982,6100.238,6361.217,6102.295,6210.209,6362.737,6437.392,6640.614,0.029,0.991,0.030,1.434,-0.183,0.427,100.000,290.000,1.000
6439.001,6391.169,6653.131,6394.387,6502.391,6654.830,6730.021,6933.243,0.024,0.990,0.025,1.343,-0.427,0.458,100.000,291.000,1.000
6591.440,6543.787,6806.017,6547.095,6655.545,6807.805,6883.533,7086.576,0.023,0.990,0.021,1.312,-0.824,0.671,100.000,292.000,1.000
6578.387,6530.286,6792.695,6533.684,6642.134,6794.126,6869.943,7073.165,0.020,0.991,0.021,1.312,-1.099,0.671,100.000,293.000,1.000
6652.237,6603.868,6866.456,6607.712,6715.806,6867.976,6944.330,7147.373,0.020,0.993,0.025,1.160,-1.251,0.671,100.000,294.000,1.000
6884.427,6835.968,7099.809,6840.528,6948.979,7100.881,7177.682,7380.814,0.019,0.993,0.028,0.885,-1.282,0.641,100.000,295.000,1.000
7033.021,6984.652,7249.029,6989.749,7098.378,7249.744,7327.170,7530.124,0.016,0.993,0.037,0.641,-1.495,0.580,100.000,296.000,1.000
7022.561,6974.549,7238.747,6979.467,7088.096,7239.730,7316.710,7520.111,0.015,0.994,0.037,0.153,-1.434,0.305,100.000,297.000,1.000
7074.864,7026.763,7291.050,7031.680,7140.399,7292.302,7369.192,7572.324,0.013,0.997,0.039,-0.214,-1.373,0.061,100.000,298.000,1.000
7329.942,7282.199,7547.380,7287.921,7396.282,7548.095,7625.879,7828.744,0.013,0.995,0.041,-0.458,-1.190,-0.153,100.000,299.000,1.000
7557.840,7510.544,7776.262,7516.803,7625.253,7777.156,7855.208,8058.162,0.014,0.996,0.043,-0.671,-0.946,-0.397,100.000,300.000,1.000
7612.021,7564.635,7829.906,7570.894,7679.345,7831.068,7909.299,8112.342,0.013,0.993,0.043,-0.854,-0.702,-0.641,100.000,301.000,1.000
7662.089,7614.703,7880.332,7621.409,7729.681,7881.315,7959.725,8162.679,0.016,0.994,0.041,-1.007,-0.488,-0.763,100.000,302.000,1.000
7877.023,7829.727,8095.981,7836.611,7945.241,8096.607,8175.643,8378.597,0.020,0.995,0.042,-0.824,-0.092,-0.916,100.000,303.000,1.000
8093.478,8046.271,8312.793,8053.423,8162.321,8313.508,8392.901,8595.855,0.020,0.997,0.042,-0.793,0.275,-1.038,100.000,304.000,1.000
8154.453,8107.246,8373.858,8114.667,8223.564,8374.752,8454.234,8657.367,0.022,0.995,0.037,-0.885,0.488,-1.221,100.000,305.000,1.000
8188.875,8141.757,8408.190,8149.357,8257.897,8409.084,8488.567,8692.058,0.024,0.995,0.039,-0.671,0.641,-1.312,100.000,306.000,1.000
8411.051,8364.291,8631.618,8372.159,8481.057,8632.154,8712.174,8915.396,0.022,0.993,0.037,-0.702,0.488,-1.373,100.000,307.000,1.000
8704.932,8657.993,8925.856,8666.397,8775.832,8926.751,9006.770,9210.081,0.020,0.992,0.033,-0.580,0.366,-1.251,100.000,308.000,1.000
8835.020,8788.527,9056.302,8797.021,8906.188,9057.374,9137.483,9340.974,0.017,0.990,0.031,-0.397,0.153,-1.007,100.000,309.000,1.000
8870.604,8823.933,9092.153,8833.052,8941.682,9093.316,9173.692,9376.736,0.020,0.989,0.033,-0.275,-0.183,-0.793,100.000,310.000,1.000
9049.060,9001.763,9270.521,9011.330,9120.316,9271.683,9352.328,9555.640,0.026,0.989,0.031,0.000,-0.519,-0.580,100.000,311.000,1.000
9341.331,9294.124,9563.507,9304.048,9413.304,9564.670,9645.314,9848.895,0.029,0.992,0.030,0.305,-0.854,-0.244,100.000,312.000,1.000
9475.441,9428.682,9698.512,9438.963,9548.040,9699.764,9780.587,9983.898,0.029,0.990,0.027,0.519,-0.854,0.122,100.000,313.000,1.000
9497.078,9450.318,9720.237,9460.868,9569.766,9721.311,9802.492,10005.535,0.024,0.991,0.031,0.641,-0.977,0.305,100.000,314.000,1.000
9657.116,9610.446,9880.455,9621.175,9730.251,9881.528,9962.978,10166.110,0.020,0.992,0.035,0.610,-0.885,0.549,100.000,315.000,1.000
9972.097,9925.695,10196.419,9936.960,10046.037,10197.402,10278.853,10482.343,0.022,0.990,0.033,0.519,-0.854,0.641,100.000,316.000,1.000
10180.862,10134.371,10405.185,10146.173,10255.070,10406.258,10488.154,10691.734,0.019,0.989,0.037,0.519,-0.671,0.702,100.000,317.000,1.000
10231.109,10184.617,10455.699,10196.240,10305.406,10456.504,10538.580,10742.159,0.015,0.989,0.037,0.458,-0.549,0.824,100.000,318.000,1.000
10357.709,10311.218,10582.747,10322.930,10432.274,10583.373,10665.270,10869.296,0.012,0.987,0.036,0.214,-0.458,0.702,100.000,319.000,1.000
10661.336,10614.755,10886.552,10626.824,10736.259,10887.625,10969.700,11173.548,0.010,0.988,0.036,0.153,-0.183,0.793,100.000,320.000,1.000
10898.264,10851.862,11123.838,10864.110,10973.276,11125.090,11207.255,11411.192,0.012,0.988,0.035,0.000,0.031,0.610,100.000,321.000,1.000
10967.197,10920.884,11192.771,10933.312,11042.567,11194.022,11276.366,11480.571,0.011,0.990,0.033,-0.092,-0.061,0.427,100.000,322.000,1.000
11078.776,11032.643,11304.798,11045.160,11154.772,11306.050,11388.304,11592.777,0.013,0.991,0.030,-0.214,0.031,0.336,100.000,323.000,1.000
11383.565,11337.342,11609.765,11350.217,11460.008,11611.464,11693.718,11898.103,0.013,0.991,0.030,-0.458,0.031,0.000,100.000,324.000,1.000
11678.161,11632.206,11905.076,11645.527,11755.141,11906.686,11989.387,12193.414,0.015,0.990,0.028,-0.458,0.031,-0.244,100.000,325.000,1.000
11793.139,11747.451,12020.590,11760.862,11870.565,12022.199,12104.900,12308.928,0.016,0.988,0.030,-0.671,0.000,-0.458,100.000,326.000,1.000
11896.403,11850.806,12123.944,11864.038,11973.920,12125.464,12207.987,12412.550,0.015,0.988,0.030,-0.763,-0.122,-0.610,100.000,327.000,1.000
12182.774,12136.908,12410.494,12150.677,12260.469,12412.192,12494.894,12699.457,0.018,0.988,0.030,-0.946,-0.214,-0.519,100.000,328.000,1.000
12504.907,12458.952,12732.717,12472.811,12582.960,12734.415,12817.296,13022.127,0.022,0.990,0.024,-1.068,-0.183,-0.488,100.000,329.000,1.000
12655.826,12610.050,12883.814,12624.087,12734.415,12885.960,12968.841,13173.582,0.027,0.990,0.024,-0.946,-0.183,-0.549,100.000,330.000,1.000
12742.462,12697.133,12971.254,12711.438,12821.408,12973.222,13056.102,13260.665,0.032,0.992,0.027,-0.977,-0.214,-0.397,100.000,331.000,1.000
12991.192,12945.505,13220.521,12960.078,13070.228,13221.862,13304.832,13509.663,0.032,0.995,0.029,-0.946,-0.305,-0.092,100.000,332.000,1.000
13320.389,13274.522,13549.985,13289.722,13400.140,13551.595,13634.386,13839.754,0.032,0.997,0.032,-0.946,-0.305,0.031,100.000,333.000,1.000
13493.570,13447.525,13723.436,13462.993,13573.679,13724.776,13807.836,14012.846,0.029,0.997,0.032,-0.916,-0.488,0.214,100.000,334.000,1.000
13559.553,13513.687,13789.597,13529.154,13639.840,13790.759,13873.997,14079.364,0.024,0.996,0.037,-0.732,-0.671,0.549,100.000,335.000,1.000
13753.118,13707.342,13983.073,13722.810,13833.316,13984.504,14068.010,14273.288,0.023,0.995,0.040,-0.610,-0.793,0.732,100.000,336.000,1.000
14065.148,14019.730,14295.640,14035.376,14145.794,14297.160,14380.666,14586.213,0.023,0.994,0.040,-0.275,-0.793,0.854,100.000,337.000,1.000
14247.718,14202.567,14478.566,14218.214,14329.078,14480.266,14563.503,14769.050,0.023,0.996,0.046,-0.153,-0.977,0.916,100.000,338.000,1.000
14303.776,14258.268,14534.535,14274.183,14385.047,14536.145,14619.651,14825.108,0.019,1.000,0.046,-0.061,-0.824,1.068,100.000,339.000,1.000
14462.831,14416.697,14693.591,14432.880,14543.923,14695.021,14778.438,14984.074,0.017,0.999,0.046,0.000,-0.793,1.007,100.000,340.000,1.000
14769.766,14723.631,15001.062,14740.172,14851.215,15002.581,15085.729,15291.813,0.013,0.997,0.049,-0.092,-0.610,0.916,100.000,341.000,1.000
14977.726,14931.682,15209.111,14948.311,15059.176,15210.899,15294.227,15500.310,0.012,0.999,0.050,-0.122,-0.580,0.824,100.000,342.000,1.000
15034.231,14988.365,15265.795,15004.638,15116.038,15267.673,15351.000,15556.904,0.008,0.998,0.051,-0.061,-0.397,0.793,100.000,343.000,1.000
15151.265,15105.667,15383.008,15121.671,15232.178,15383.901,15468.570,15674.385,0.007,0.995,0.046,0.061,-0.336,0.793,100.000,344.000,1.000
15433.701,15387.836,15654.626,15392.843,15508.178,15659.364,15754.494,15960.487,0.007,0.995,0.047,0.305,-0.275,0.763,100.000,345.000,1.000
15674.206,15627.625,15913.817,15651.854,15776.130,15927.675,16013.416,16219.679,0.011,0.997,0.045,0.427,-0.214,0.763,100.000,346.000,1.000
15767.904,15720.787,16034.517,15773.358,15889.409,16041.043,16118.559,16324.910,0.017,0.997,0.040,0.305,-0.183,0.824,100.000,347.000,1.000
15922.758,15876.624,16148.868,15888.067,16015.741,16167.286,16229.513,16435.953,0.021,1.000,0.044,0.427,-0.153,0.732,100.000,348.000,1.000
16226.294,16180.965,16470.285,16209.128,16312.572,16464.742,16550.842,16757.283,0.029,1.001,0.042,0.549,-0.092,0.641,100.000,349.000,1.000
16535.018,16489.865,16773.287,16512.039,16620.848,16772.482,16858.402,17064.932,0.034,1.002,0.035,0.427,-0.061,0.397,100.000,350.000,1.000
16667.340,16621.742,16900.424,16639.176,16750.666,16902.121,16985.717,17192.068,0.036,1.002,0.037,0.275,0.000,0.183,100.000,351.000,1.000
16783.211,16737.523,17016.295,16755.047,16866.537,17018.262,17101.410,17307.939,0.035,1.005,0.039,0.244,0.122,0.061,100.000,352.000,1.000
17076.287,17030.600,17309.549,17048.123,17159.613,17311.428,17394.396,17601.285,0.034,1.003,0.037,0.183,0.183,-0.153,100.000,353.000,1.000
17416.033,17370.703,17649.295,17387.781,17499.719,17651.531,17734.680,17941.389,0.032,1.001,0.035,0.122,0.305,-0.244,100.000,354.000,1.000
17589.750,17544.422,17823.104,17561.320,17673.436,17825.428,17908.666,18115.465,0.029,1.000,0.033,0.214,0.427,-0.244,100.000,355.000,1.000
17701.688,17656.359,17935.398,17673.615,17785.641,17937.365,18020.693,18227.580,0.029,0.997,0.031,0.397,0.366,-0.275,100.000,356.000,1.000
17940.404,17895.344,18174.383,17912.777,18024.805,18176.350,18259.855,18466.564,0.026,0.996,0.036,0.488,0.305,-0.183,100.000,357.000,1.000
18254.313,18209.430,18488.559,18227.043,18339.160,18490.973,18574.121,18781.100,0.024,0.994,0.033,0.549,0.122,-0.061,100.000,358.000,1.000
18448.326,18403.176,18682.572,18421.057,18533.441,18685.076,18768.135,18975.559,0.024,0.997,0.032,0.671,0.031,0.061,100.000,359.000,1.000
18564.734,18519.494,18798.891,18537.555,18649.760,18801.484,18884.543,19091.877,0.021,0.996,0.031,0.824,-0.061,0.214,100.000,360.000,1.000
18788.342,18743.459,19022.945,18760.625,18873.635,19025.359,19108.328,19315.395,0.021,0.993,0.034,0.885,-0.122,0.275,100.000,361.000,1.000
19119.951,19075.068,19354.645,19092.234,19205.246,19356.969,19439.850,19647.096,0.023,0.994,0.035,0.916,-0.153,0.519,100.000,362.000,1.000
19374.582,19329.699,19609.365,19347.045,19459.967,19611.779,19694.748,19902.262,0.024,0.994,0.032,0.732,-0.092,0.641,100.000,363.000,1.000
19549.998,19505.117,19784.961,19522.551,19635.650,19787.375,19870.344,20077.322,0.022,0.994,0.031,0.580,-0.122,0.702,100.000,364.000,1.000
19796.941,19752.326,20032.170,19769.582,19882.861,20034.674,20117.287,20324.711,0.019,0.995,0.030,0.549,-0.122,0.732,100.000,365.000,1.000
20144.734,20100.119,20379.965,20117.107,20230.654,20382.467,20465.080,20672.861,0.019,0.996,0.032,0.549,-0.214,0.763,100.000,366.000,1.000
20410.004,20365.211,20645.502,20382.199,20496.014,20647.738,20730.617,20938.578,0.018,0.993,0.035,0.610,-0.275,0.824,100.000,367.000,1.000
20574.514,20529.811,20809.832,20546.797,20660.434,20812.426,20895.217,21103.355,0.019,0.994,0.034,0.610,-0.427,0.763,100.000,368.000,1.000
20822.170,20777.736,21057.848,20794.990,20908.359,21060.082,21142.873,21351.104,0.021,0.994,0.031,0.610,-0.549,1.038,100.000,369.000,1.000
21203.850,21159.414,21439.525,21176.400,21290.307,21442.297,21524.553,21732.959,0.025,0.990,0.030,0.702,-0.824,1.099,100.000,370.000,1.000
21555.934,21511.410,21791.521,21528.129,21642.391,21794.293,21876.457,22084.955,0.024,0.990,0.029,0.824,-0.885,1.190,100.000,371.000,1.000
21785.889,21741.363,22021.654,21757.994,21872.703,22024.338,22106.502,22315.357,0.026,0.993,0.030,1.038,-1.129,1.282,100.000,372.000,1.000
22003.863,21959.518,22239.809,21975.969,22091.035,22242.490,22324.744,22533.152,0.026,0.995,0.033,1.099,-1.221,1.190,100.000,373.000,1.000
22328.410,22284.244,22564.445,22300.248,22415.314,22567.127,22649.381,22857.879,0.028,0.995,0.036,1.099,-1.312,1.068,100.000,374.000,1.000
22642.408,22598.777,22878.531,22614.424,22729.580,22881.660,22963.469,23172.322,0.029,0.997,0.038,1.007,-1.129,0.946,100.000,375.000,1.000
22850.369,22806.648,23086.760,22822.385,22937.809,23089.889,23171.875,23380.820,0.027,0.996,0.038,0.702,-1.038,0.732,100.000,376.000,1.000
23063.783,23019.705,23299.906,23035.172,23151.133,23303.125,23384.932,23594.055,0.028,0.993,0.040,0.458,-0.977,0.488,100.000,377.000,1.000
23401.740,23357.752,23638.043,23372.863,23489.002,23641.174,23722.623,23931.656,0.029,0.994,0.042,0.305,-0.793,0.153,100.000,378.000,1.000
23741.219,23697.500,23977.701,23712.252,23828.570,23980.830,24062.012,24271.313,0.028,0.993,0.041,0.214,-0.519,-0.214,100.000,379.000,1.000
23952.666,23908.678,24188.969,23923.520,24039.660,24192.277,24273.369,24482.939,0.029,0.993,0.041,0.122,-0.397,-0.580,100.000,380.000,1.000
24127.637,24083.916,24364.387,24099.025,24215.256,24367.516,24448.697,24658.535,0.027,0.992,0.043,0.061,-0.122,-1.007,100.000,381.000,1.000
24404.262,24360.631,24641.189,24375.652,24492.059,24644.141,24725.322,24935.697,0.024,0.990,0.041,0.061,0.031,-1.282,100.000,382.000,1.000
24745.350,24701.451,24981.920,24716.203,24833.057,24984.871,25066.053,25276.158,0.021,0.988,0.038,-0.153,0.092,-1.556,100.000,383.000,1.000
24990.057,24946.246,25226.447,24960.641,25077.854,25229.578,25310.938,25520.418,0.020,0.983,0.033,-0.244,-0.122,-1.740,100.000,384.000,1.000
25172.447,25128.994,25409.195,25142.854,25260.512,25412.504,25493.775,25703.256,0.018,0.982,0.032,-0.275,-0.153,-1.801,100.000,385.000,1.000
25411.967,25368.695,25649.164,25382.105,25500.570,25652.740,25733.387,25942.867,0.015,0.979,0.029,-0.275,-0.305,-1.923,100.000,386.000,1.000
25716.219,25672.857,25953.416,25686.357,25804.822,25956.725,26037.549,26247.297,0.014,0.982,0.038,-0.275,-0.549,-1.862,100.000,387.000,1.000
25965.219,25922.123,26202.684,25935.268,26053.820,26205.723,26286.547,26496.295,0.012,0.979,0.038,-0.610,-0.824,-1.648,100.000,388.000,1.000
26167.904,26124.988,26405.279,26137.863,26256.596,26408.318,26489.322,26699.250,0.012,0.980,0.036,-0.763,-1.099,-1.312,100.000,389.000,1.000
26390.527,26347.434,26627.725,26360.396,26478.861,26631.031,26711.588,26921.873,0.014,0.978,0.033,-0.732,-1.282,-1.068,100.000,390.000,1.000
26636.486,26593.303,26873.594,26605.641,26724.551,26876.990,26957.635,27167.742,0.019,0.975,0.031,-0.763,-1.282,-0.946,100.000,391.000,1.000
26792.770,26749.943,27029.520,26762.102,26880.746,27033.453,27113.830,27323.668,0.023,0.976,0.026,-0.641,-1.404,-0.519,100.000,392.000,1.000
26886.021,26843.373,27122.859,26855.533,26974.355,27126.705,27206.992,27417.367,0.026,0.978,0.027,-0.641,-1.434,-0.336,100.000,393.000,1.000
27018.254,26975.160,27255.182,26987.141,27106.678,27258.938,27339.135,27549.689,0.026,0.980,0.029,-0.580,-1.343,-0.061,100.000,394.000,1.000
27228.807,27185.623,27465.646,27197.693,27317.588,27469.670,27549.689,27760.242,0.028,0.980,0.030,-0.641,-1.099,0.061,100.000,395.000,1.000
27411.645,27368.461,27648.482,27380.352,27500.516,27652.596,27732.168,27942.990,0.026,0.981,0.033,-0.641,-0.916,0.214,100.000,396.000,1.000
27518.039,27475.391,27755.504,27486.746,27607.178,27759.438,27839.010,28049.652,0.026,0.981,0.039,-0.671,-0.763,0.519,100.000,397.000,1.000
27635.787,27592.873,27873.074,27604.496,27724.479,27876.740,27956.313,28167.133,0.027,0.981,0.034,-0.763,-0.580,0.732,100.000,398.000,1.000
27807.896,27765.160,28044.646,27776.066,27896.678,28048.223,28128.242,28338.795,0.028,0.980,0.031,-0.885,-0.275,0.824,100.000,399.000,1.000
27943.795,27901.326,28180.992,27912.055,28032.666,28184.568,28264.498,28475.588,0.028,0.982,0.036,-0.946,0.183,1.007,100.000,400.000,1.000
28003.877,27961.051,28241.252,27972.137,28092.658,28244.648,28324.668,28535.580,0.028,0.983,0.033,-1.129,0.641,0.946,100.000,401.000,1.000
28117.602,28074.775,28354.799,28085.863,28206.115,28358.285,28438.484,28648.947,0.025,0.986,0.034,-1.251,1.007,0.977,100.000,402.000,1.000
28334.504,28292.213,28571.879,28302.943,28423.285,28575.633,28655.295,28866.207,0.020,0.986,0.036,-1.373,1.221,1.007,100.000,403.000,1.000
28528.873,28486.316,28766.160,28497.225,28618.102,28769.916,28849.666,29060.578,0.017,0.987,0.035,-1.465,1.312,0.916,100.000,404.000,1.000
28628.652,28585.916,28865.938,28596.912,28717.881,28869.873,28949.623,29160.623,0.015,0.986,0.038,-1.312,1.373,0.793,100.000,405.000,1.000
28731.471,28688.645,28968.846,28699.373,28820.609,28972.602,29051.904,29263.531,0.011,0.989,0.035,-1.343,1.251,0.732,100.000,406.000,1.000
28906.887,28864.328,29144.262,28874.699,28996.115,29148.107,29227.053,29438.770,0.009,0.989,0.036,-1.465,0.946,0.641,100.000,407.000,1.000
29098.576,29056.375,29335.594,29066.299,29187.803,29339.705,29418.830,29630.279,0.008,0.990,0.035,-1.801,0.580,0.671,100.000,408.000,1.000
29204.164,29162.055,29441.361,29171.799,29293.303,29445.385,29524.510,29735.779,0.008,0.992,0.033,-1.953,0.122,0.671,100.000,409.000,1.000
29295.896,29253.785,29533.451,29263.621,29385.125,29537.027,29616.242,29827.600,0.008,0.992,0.031,-2.106,-0.366,0.671,100.000,410.000,1.000
29452.359,29410.248,29690.271,29420.172,29541.766,29693.668,29772.883,29983.973,0.011,0.994,0.025,-2.197,-0.946,0.671,100.000,411.000,1.000
29640.738,29598.092,29878.473,29608.285,29730.236,29882.227,29960.994,30172.443,0.013,0.996,0.025,-2.045,-1.343,0.732,100.000,412.000,1.000
29742.664,29699.838,29980.039,29710.209,29831.980,29984.330,30063.188,30274.635,0.015,1.000,0.033,-1.862,-1.648,0.641,100.000,413.000,1.000
29819.463,29777.174,30057.375,29787.010,29908.961,30061.398,30140.256,30351.613,0.017,0.999,0.040,-2.014,-1.892,0.519,100.000,414.000,1.000
29955.451,29912.982,30193.096,29922.371,30044.680,30197.029,30275.707,30487.334,0.017,1.000,0.042,-1.892,-1.862,0.336,100.000,415.000,1.000
30129.617,30087.238,30366.902,30096.000,30218.756,30371.193,30449.873,30661.498,0.020,1.003,0.045,-2.014,-1.862,0.122,100.000,416.000,1.000
30233.598,30191.396,30470.973,30200.248,30323.094,30475.354,30553.854,30765.389,0.024,1.005,0.044,-2.106,-1.678,0.061,100.000,417.000,1.000
30300.295,30258.094,30537.938,30267.213,30389.881,30542.141,30620.461,30832.355,0.027,1.003,0.043,-2.106,-1.282,0.000,100.000,418.000,1.000
30416.523,30374.055,30653.811,30382.816,30505.752,30658.191,30736.869,30948.494,0.031,1.002,0.042,-1.984,-0.824,-0.092,100.000,419.000,1.000
30585.859,30543.928,30823.146,30552.332,30675.357,30827.617,30906.205,31118.189,0.035,1.002,0.042,-1.740,-0.275,-0.153,100.000,420.000,1.000
30709.152,30667.221,30946.527,30675.982,30798.648,30951.178,31029.230,31241.393,0.034,1.004,0.042,-1.678,0.244,-0.305,100.000,421.000,1.000
30783.629,30741.785,31020.914,30750.279,30873.035,31025.385,31103.438,31315.869,0.033,1.005,0.042,-1.709,0.488,-0.336,100.000,422.000,1.000
30881.529,30839.775,31118.637,30848.002,30971.473,31123.375,31201.605,31413.947,0.031,1.006,0.043,-1.678,0.763,-0.366,100.000,423.000,1.000
31024.848,30982.916,31262.135,30991.232,31114.523,31266.605,31344.836,31556.998,0.027,1.006,0.044,-1.587,0.946,-0.397,100.000,424.000,1.000
31129.545,31087.523,31366.830,31095.658,31219.041,31371.211,31449.264,31661.695,0.021,1.005,0.043,-1.526,0.916,-0.305,100.000,425.000,1.000
31153.236,31111.305,31390.881,31119.531,31243.092,31394.814,31473.135,31685.299,0.019,1.003,0.048,-1.465,0.641,-0.153,100.000,426.000,1.000
31195.795,31154.221,31433.439,31162.268,31285.381,31437.820,31516.051,31728.213,0.021,1.005,0.051,-1.343,0.275,-0.122,100.000,427.000,1.000
31292.086,31250.244,31529.641,31258.379,31381.672,31534.379,31612.342,31824.504,0.021,1.006,0.051,-1.190,0.000,0.061,100.000,428.000,1.000
31372.016,31329.904,31609.033,31337.684,31461.691,31613.771,31691.734,31903.988,0.019,1.008,0.049,-1.007,-0.336,0.244,100.000,429.000,1.000
31368.262,31326.240,31605.457,31334.107,31457.758,31610.107,31687.980,31900.232,0.018,1.006,0.046,-0.702,-0.549,0.153,100.000,430.000,1.000
31370.139,31328.475,31607.871,31336.699,31459.902,31612.252,31690.662,31902.914,0.019,1.002,0.048,-0.305,-0.702,0.092,100.000,431.000,1.000
31434.602,31392.848,31671.977,31400.984,31524.275,31676.625,31754.678,31967.287,0.018,1.005,0.052,0.031,-0.793,0.183,100.000,432.000,1.000
31509.256,31467.949,31746.721,31475.639,31599.020,31751.816,31829.602,32042.031,0.018,1.002,0.050,0.366,-0.793,0.183,100.000,433.000,1.000
31496.023,31454.270,31733.488,31462.229,31586.057,31738.049,31816.279,32028.621,0.021,1.001,0.049,0.671,-0.641,0.305,100.000,434.000,1.000
31480.020,31438.355,31717.307,31446.225,31569.873,31721.955,31799.918,32012.617,0.019,1.001,0.051,0.793,-0.580,0.275,100.000,435.000,1.000
31525.260,31484.043,31762.545,31491.643,31615.113,31767.285,31844.889,32057.768,0.019,1.001,0.047,0.763,-0.488,0.183,100.000,436.000,1.000
31604.564,31562.988,31841.939,31570.410,31694.328,31846.230,31924.193,32136.713,0.019,1.000,0.046,0.702,-0.427,0.183,100.000,437.000,1.000
31609.660,31567.816,31846.678,31575.328,31699.334,31851.506,31929.736,32142.078,0.020,0.999,0.042,0.763,-0.214,0.214,100.000,438.000,1.000
31584.982,31543.498,31822.090,31550.920,31674.748,31827.188,31905.061,32117.580,0.021,0.997,0.041,0.885,0.031,0.336,100.000,439.000,1.000
31622.535,31581.049,31860.178,31588.648,31712.566,31864.916,31942.344,32155.043,0.022,0.997,0.039,1.038,0.214,0.336,100.000,440.000,1.000
31725.799,31683.957,31963.086,31691.824,31815.832,31968.271,32045.787,32258.129,0.020,0.996,0.035,0.885,0.244,0.305,100.000,441.000,1.000
31769.520,31727.678,32006.627,31735.277,31859.195,32011.633,32089.328,32301.760,0.018,0.993,0.035,0.916,0.305,0.397,100.000,442.000,1.000
31758.701,31717.484,31996.346,31724.547,31848.555,32000.904,32078.689,32291.209,0.018,0.991,0.034,1.038,0.458,0.336,100.000,443.000,1.000
31799.023,31757.629,32036.578,31764.871,31888.967,32041.139,32119.279,32331.711,0.022,0.993,0.029,0.885,0.549,0.336,100.000,444.000,1.000
31910.961,31869.566,32148.516,31876.986,32001.084,32153.076,32230.859,32443.826,0.026,0.990,0.030,0.885,0.641,0.366,100.000,445.000,1.000
31990.355,31949.227,32227.998,31956.559,32080.119,32232.469,32310.252,32523.041,0.030,0.992,0.033,0.824,0.793,0.427,100.000,446.000,1.000
31995.182,31953.250,32232.648,31960.850,32084.680,32237.207,32314.633,32527.422,0.030,0.994,0.034,0.641,0.946,0.488,100.000,447.000,1.000
32023.256,31981.682,32261.078,31989.014,32113.199,32265.549,32343.064,32555.406,0.031,0.992,0.032,0.366,1.068,0.641,100.000,448.000,1.000
32133.227,32091.832,32370.961,32098.895,32223.170,32375.520,32453.035,32665.557,0.029,0.995,0.033,0.305,1.099,0.763,100.000,449.000,1.000
32245.074,32203.412,32482.719,32210.832,32335.018,32487.457,32564.973,32777.402,0.031,0.996,0.032,0.183,1.221,0.885,100.000,450.000,1.000
32264.029,32222.635,32501.674,32229.875,32354.330,32506.502,32584.018,32796.539,0.035,0.993,0.030,0.122,1.221,0.977,100.000,451.000,1.000
32281.195,32239.801,32518.928,32247.400,32371.406,32523.756,32601.184,32813.793,0.030,0.994,0.032,0.244,1.190,1.007,100.000,452.000,1.000
32385.891,32344.764,32623.535,32351.826,32476.014,32628.453,32705.879,32918.668,0.028,0.995,0.038,0.214,1.129,1.038,100.000,453.000,1.000
32513.832,32472.885,32751.654,32479.680,32604.313,32756.752,32834.000,33046.789,0.023,0.995,0.042,0.092,0.824,1.160,100.000,454.000,1.000
32539.492,32498.186,32777.047,32504.980,32629.883,32782.145,32859.480,33072.180,0.021,0.995,0.041,0.153,0.641,1.221,100.000,455.000,1.000
32530.820,32489.514,32768.465,32496.131,32620.674,32773.023,32850.898,33063.328,0.020,0.995,0.039,0.275,0.244,1.221,100.000,456.000,1.000
32589.203,32547.449,32826.758,32554.244,32679.057,32831.227,32908.832,33121.352,0.021,0.995,0.039,0.458,-0.122,1.190,100.000,457.000,1.000
32696.848,32655.453,32934.402,32662.248,32787.598,32939.410,33016.566,33229.535,0.020,0.998,0.038,0.671,-0.305,1.099,100.000,458.000,1.000
32707.041,32665.467,32944.328,32672.082,32797.074,32949.422,33026.582,33239.551,0.020,1.003,0.040,0.763,-0.366,1.007,100.000,459.000,1.000
32651.967,32610.570,32889.430,32617.188,32741.910,32894.438,32971.688,33184.297,0.019,1.003,0.042,0.580,-0.488,0.885,100.000,460.000,1.000
32655.543,32614.146,32893.008,32620.584,32745.664,32898.016,32975.172,33187.781,0.019,1.003,0.045,0.305,-0.519,0.671,100.000,461.000,1.000
32742.982,32701.588,32980.449,32708.113,32833.285,32985.543,33062.793,33275.313,0.017,1.003,0.042,-0.031,-0.458,0.397,100.000,462.000,1.000
32762.385,32720.721,33000.027,32727.783,32852.684,33005.035,33082.281,33294.801,0.018,1.003,0.041,-0.183,-0.427,0.153,100.000,463.000,1.000
32680.576,32639.002,32918.219,32645.887,32770.609,32923.047,33000.652,33213.176,0.019,1.004,0.038,-0.214,-0.244,-0.183,100.000,464.000,1.000
32579.814,32538.330,32817.547,32545.215,32670.027,32822.465,32899.801,33112.500,0.019,1.003,0.041,-0.183,0.031,-0.458,100.000,465.000,1.000
32593.137,32551.830,32830.602,32558.625,32683.617,32835.520,32913.305,33126.090,0.023,1.000,0.042,-0.183,0.183,-0.732,100.000,466.000,1.000
32621.746,32580.619,32859.480,32587.414,32712.137,32864.309,32941.914,33154.793,0.025,1.001,0.043,0.000,0.458,-0.854,100.000,467.000,1.000
32554.781,32513.742,32792.602,32520.449,32645.082,32797.520,32874.770,33087.824,0.030,1.000,0.044,0.031,0.763,-1.099,100.000,468.000,1.000
32495.326,32453.752,32732.701,32460.725,32585.270,32737.529,32814.867,33027.742,0.033,0.999,0.042,0.061,0.946,-1.221,100.000,469.000,1.000
32554.154,32512.670,32791.887,32519.465,32644.545,32796.539,32873.875,33086.930,0.033,0.999,0.038,0.214,0.977,-1.373,100.000,470.000,1.000
32629.078,32587.771,32866.813,32594.479,32719.646,32871.996,32949.246,33162.031,0.031,0.996,0.036,0.458,0.763,-1.373,100.000,471.000,1.000
32593.227,32552.010,32831.047,32558.805,32683.705,32836.324,32913.480,33126.449,0.025,0.992,0.035,0.824,0.641,-1.190,100.000,472.000,1.000
32533.592,32492.375,32771.773,32499.438,32623.982,32777.047,32853.758,33066.816,0.024,0.991,0.028,1.007,0.397,-1.129,100.000,473.000,1.000
32587.324,32545.750,32825.148,32552.725,32677.715,32830.332,32907.133,33120.191,0.026,0.990,0.029,1.251,0.000,-1.038,100.000,474.000,1.000
32669.043,32627.379,32906.777,32634.354,32759.791,32911.695,32989.031,33201.641,0.026,0.989,0.028,1.404,-0.214,-0.793,100.000,475.000,1.000
32626.484,32585.090,32864.039,32591.885,32717.055,32869.137,32946.383,33159.082,0.024,0.988,0.026,1.495,-0.336,-0.397,100.000,476.000,1.000
32537.705,32496.398,32775.707,32503.104,32627.916,32780.711,32857.691,33070.570,0.025,0.988,0.025,1.526,-0.488,-0.183,100.000,477.000,1.000
32558.982,32517.320,32796.715,32524.293,32649.195,32801.367,32878.969,33091.758,0.025,0.988,0.027,1.282,-0.610,0.092,100.000,478.000,1.000
32672.529,32630.777,32910.352,32637.930,32762.830,32915.000,32992.605,33205.215,0.026,0.986,0.030,1.160,-0.702,0.183,100.000,479.000,1.000
32687.281,32645.439,32925.105,32652.592,32777.402,32929.395,33007.359,33219.879,0.025,0.991,0.029,0.977,-0.824,0.397,100.000,480.000,1.000
32611.107,32569.176,32848.395,32576.148,32701.318,32853.043,32931.094,33143.703,0.024,0.994,0.029,0.793,-0.885,0.427,100.000,481.000,1.000
32621.926,32580.709,32859.480,32587.146,32712.494,32864.574,32942.004,33154.879,0.024,0.993,0.031,0.610,-0.885,0.336,100.000,482.000,1.000
32748.705,32707.221,32986.168,32713.926,32838.918,32991.625,33068.871,33281.660,0.024,0.994,0.030,0.488,-0.824,0.336,100.000,483.000,1.000
32801.543,32760.059,33039.098,32766.854,32892.023,33044.016,33121.711,33334.500,0.026,0.991,0.034,0.458,-0.763,0.397,100.000,484.000,1.000
32743.877,32702.303,32981.609,32709.008,32834.445,32986.168,33063.953,33276.652,0.025,0.992,0.037,0.458,-0.671,0.183,100.000,485.000,1.000
32730.465,32689.248,32968.469,32695.775,32820.945,32973.117,33050.453,33263.332,0.023,0.992,0.039,0.488,-0.519,0.000,100.000,486.000,1.000
32855.367,32814.152,33093.457,32820.945,32945.578,33098.105,33175.176,33388.320,0.024,0.990,0.043,0.519,-0.519,-0.122,100.000,487.000,1.000
32949.422,32907.938,33187.246,32914.645,33039.457,33192.074,33269.145,33482.109,0.026,0.989,0.040,0.458,-0.366,-0.214,100.000,488.000,1.000
32908.477,32867.258,33146.387,32873.695,32998.777,33151.125,33228.551,33440.895,0.027,0.987,0.039,0.580,-0.397,-0.305,100.000,489.000,1.000
32882.816,32841.242,33120.816,32848.395,32973.383,33125.199,33202.891,33415.414,0.031,0.984,0.036,0.641,-0.366,-0.336,100.000,490.000,1.000
33007.449,32966.141,33245.359,32972.668,33097.660,33249.742,33326.898,33540.137,0.035,0.983,0.035,0.549,-0.519,-0.458,100.000,491.000,1.000
33128.953,33088.094,33367.043,33094.352,33219.523,33371.691,33449.031,33661.996,0.037,0.984,0.030,0.488,-0.397,-0.397,100.000,492.000,1.000
33089.344,33048.309,33327.527,33054.656,33180.004,33331.906,33409.422,33622.121,0.038,0.986,0.029,0.427,-0.305,-0.519,100.000,493.000,1.000
33011.113,32969.988,33249.383,32976.336,33101.773,33253.676,33331.102,33543.891,0.035,0.989,0.024,0.244,-0.305,-0.458,100.000,494.000,1.000
33082.281,33040.617,33320.371,33047.594,33172.582,33324.934,33402.715,33614.789,0.034,0.986,0.024,0.061,-0.122,-0.519,100.000,495.000,1.000
33221.398,33179.734,33459.488,33186.621,33311.789,33463.961,33541.117,33754.086,0.031,0.986,0.023,-0.122,0.061,-0.549,100.000,496.000,1.000
33225.691,33184.563,33463.512,33190.375,33316.082,33468.254,33545.320,33758.379,0.027,0.987,0.023,-0.366,-0.122,-0.366,100.000,497.000,1.000
33155.328,33113.934,33392.973,33119.566,33245.629,33397.801,33475.137,33687.836,0.024,0.987,0.029,-0.671,-0.183,-0.092,100.000,498.000,1.000
33217.375,33175.891,33455.289,33181.523,33307.766,33460.207,33537.094,33749.793,0.021,0.988,0.032,-0.854,-0.336,0.000,100.000,499.000,1.000
33386.176,33344.781,33624.180,33350.684,33476.566,33629.094,33705.895,33919.043,0.021,0.990,0.036,-0.977,-0.366,0.122,100.000,500.000,1.000
33414.875,33373.750,33652.520,33379.648,33505.266,33657.617,33734.508,33947.922,0.020,0.990,0.040,-1.190,-0.336,0.214,100.000,501.000,1.000
33322.785,33281.930,33560.609,33287.828,33413.625,33565.527,33642.684,33856.012,0.016,0.994,0.042,-1.099,-0.244,0.305,100.000,502.000,1.000
33337.094,33296.590,33575.273,33302.402,33428.020,33580.191,33657.168,33870.227,0.013,0.998,0.043,-1.007,-0.305,0.275,100.000,503.000,1.000
33516.621,33475.941,33754.980,33481.574,33607.637,33759.988,33836.609,34050.113,0.010,0.996,0.047,-0.946,-0.427,0.000,100.000,504.000,1.000
33614.699,33573.574,33852.883,33579.563,33705.719,33858.066,33934.688,34148.102,0.008,0.996,0.048,-0.793,-0.458,-0.092,100.000,505.000,1.000
33573.395,33532.180,33811.395,33538.168,33664.055,33816.492,33893.203,34106.172,0.005,0.997,0.049,-0.458,-0.580,-0.153,100.000,506.000,1.000
33597.715,33556.586,33835.535,33562.129,33688.191,33840.543,33917.523,34130.313,0.005,0.996,0.052,-0.244,-0.702,-0.153,100.000,507.000,1.000
33793.246,33752.297,34031.070,33757.215,33883.996,34036.164,34112.875,34325.934,0.006,0.993,0.050,0.000,-0.885,-0.244,100.000,508.000,1.000
33942.555,33901.430,34180.559,33906.793,34033.484,34185.922,34262.453,34475.332,0.010,0.994,0.046,0.122,-0.885,-0.244,100.000,509.000,1.000
33925.121,33884.621,34163.660,33889.984,34016.766,34168.934,34245.469,34458.613,0.013,0.996,0.042,0.183,-0.885,-0.153,100.000,510.000,1.000
33911.531,33870.582,34149.891,33876.305,34002.816,34154.898,34231.520,34444.844,0.019,0.997,0.041,0.214,-0.885,-0.153,100.000,511.000,1.000
34082.121,34040.992,34320.480,34046.270,34172.777,34325.309,34401.660,34614.898,0.022,0.996,0.037,0.183,-0.763,-0.153,100.000,512.000,1.000
34267.730,34227.051,34506.266,34231.965,34358.836,34511.273,34587.359,34801.223,0.028,0.997,0.035,0.183,-0.793,-0.122,100.000,513.000,1.000
34293.926,34252.977,34531.926,34258.164,34384.941,34537.559,34613.375,34827.238,0.029,0.996,0.033,-0.061,-0.702,-0.183,100.000,514.000,1.000
34293.211,34252.352,34531.211,34257.715,34384.586,34536.754,34612.930,34826.523,0.029,0.996,0.029,-0.061,-0.549,-0.153,100.000,515.000,1.000
34460.223,34419.273,34698.133,34424.281,34551.238,34703.590,34779.852,34993.535,0.029,0.993,0.030,-0.031,-0.458,-0.061,100.000,516.000,1.000
34677.301,34636.176,34915.395,34640.824,34768.230,34920.398,34996.664,35210.973,0.027,0.993,0.027,0.153,-0.488,0.244,100.000,517.000,1.000
34732.914,34691.785,34971.273,34696.613,34823.840,34975.922,35052.363,35266.672,0.026,0.995,0.027,0.305,-0.427,0.397,100.000,518.000,1.000
34689.461,34648.961,34928.270,34653.609,34780.926,34933.273,35009.270,35223.313,0.026,0.993,0.028,0.519,-0.427,0.549,100.000,519.000,1.000
34773.773,34733.184,35011.953,34737.652,34864.789,35017.227,35093.492,35307.176,0.023,0.996,0.029,0.732,-0.397,0.641,100.000,520.000,1.000
34984.863,34944.094,35223.402,34948.922,35075.879,35228.406,35304.402,35518.266,0.023,0.995,0.033,1.068,-0.305,0.793,100.000,521.000,1.000
35078.113,35037.344,35316.652,35041.637,35169.219,35321.750,35397.387,35611.605,0.027,0.994,0.032,1.221,-0.397,0.854,100.000,522.000,1.000
35055.672,35014.547,35293.941,35019.195,35146.688,35298.949,35375.035,35589.254,0.031,0.993,0.027,1.068,-0.610,0.916,100.000,523.000,1.000
35132.293,35091.438,35370.922,35096.352,35223.848,35376.020,35451.746,35666.055,0.031,0.994,0.025,1.099,-0.580,0.824,100.000,524.000,1.000
35345.711,35305.117,35584.246,35309.141,35436.992,35589.344,35665.250,35879.559,0.026,0.996,0.024,0.916,-0.427,0.732,100.000,525.000,1.000
35455.320,35414.465,35693.594,35418.664,35546.430,35699.137,35774.953,35989.082,0.021,0.997,0.025,0.671,-0.488,0.458,100.000,526.000,1.000
35419.113,35378.523,35657.828,35382.813,35510.309,35663.016,35738.922,35952.961,0.017,0.994,0.026,0.305,-0.732,0.305,100.000,527.000,1.000
35468.105,35427.875,35707.004,35431.809,35559.840,35712.188,35787.918,36002.402,0.015,0.995,0.026,0.183,-0.916,0.061,100.000,528.000,1.000
35692.070,35651.660,35930.699,35655.414,35783.715,35936.063,36011.703,36226.188,0.016,0.993,0.026,0.000,-0.946,-0.214,100.000,529.000,1.000
35858.816,35818.582,36097.891,35822.426,35951.262,36103.254,36178.805,36392.934,0.016,0.993,0.030,-0.153,-1.068,-0.458,100.000,530.000,1.000
35876.609,35836.016,36115.949,35840.129,35968.695,36121.137,36196.508,36410.547,0.019,0.993,0.032,-0.214,-1.099,-0.488,100.000,531.000,1.000
35929.895,35889.035,36168.789,35893.328,36021.270,36173.707,36249.434,36463.566,0.020,0.991,0.033,-0.488,-0.946,-0.549,100.000,532.000,1.000
36155.914,36115.414,36394.543,36119.168,36247.559,36400.266,36475.547,36689.766,0.021,0.993,0.033,-0.793,-0.916,-0.671,100.000,533.000,1.000
36361.820,36321.406,36600.895,36325.164,36453.551,36606.348,36681.359,36895.938,0.019,0.992,0.033,-0.885,-0.610,-0.732,100.000,534.000,1.000
36396.332,36355.918,36635.316,36359.852,36488.242,36640.680,36716.141,36930.359,0.020,0.989,0.031,-0.946,-0.488,-0.732,100.000,535.000,1.000
36421.902,36381.398,36660.707,36385.156,36513.723,36666.160,36741.621,36956.195,0.019,0.989,0.029,-0.885,-0.427,-0.610,100.000,536.000,1.000
36624.586,36584.355,36863.660,36587.840,36716.766,36869.383,36944.039,37159.152,0.019,0.988,0.029,-0.671,-0.336,-0.580,100.000,537.000,1.000
36858.387,36818.152,37097.371,36821.191,36950.117,37102.914,37177.660,37392.594,0.018,0.988,0.029,-0.427,-0.275,-0.519,100.000,538.000,1.000
36930.539,36890.395,37169.699,36893.434,37022.449,37175.066,37249.898,37464.922,0.016,0.987,0.028,-0.092,-0.397,-0.305,100.000,539.000,1.000
36950.652,36910.602,37190.266,36913.551,37043.281,37195.629,37270.375,37485.129,0.016,0.987,0.029,0.000,-0.519,-0.153,100.000,540.000,1.000
37127.590,37087.270,37367.113,37090.219,37220.215,37372.566,37447.043,37661.797,0.015,0.988,0.028,0.000,-0.427,0.092,100.000,541.000,1.000
37377.840,37337.785,37617.453,37341.094,37470.734,37623.262,37697.559,37912.316,0.013,0.989,0.030,-0.092,-0.519,0.244,100.000,542.000,1.000
37477.352,37437.387,37716.961,37440.605,37570.066,37722.504,37796.801,38012.094,0.016,0.990,0.029,-0.214,-0.641,0.305,100.000,543.000,1.000
37487.273,37447.133,37726.707,37450.082,37580.168,37732.875,37806.816,38021.930,0.015,0.990,0.033,-0.397,-0.671,0.244,100.000,544.000,1.000
37629.074,37589.469,37869.043,37592.148,37722.504,37874.945,37949.063,38164.176,0.017,0.991,0.035,-0.732,-0.702,0.092,100.000,545.000,1.000
37885.137,37845.617,38125.016,37847.762,37978.477,38131.004,38205.125,38420.684,0.021,0.993,0.039,-0.793,-0.732,0.153,100.000,546.000,1.000
38019.516,37979.461,38259.305,37982.230,38112.676,38265.117,38338.875,38554.617,0.021,0.996,0.038,-0.916,-0.763,0.122,100.000,547.000,1.000
38034.980,37995.105,38274.949,37997.879,38128.590,38280.941,38354.523,38569.902,0.019,0.996,0.037,-1.312,-0.732,-0.031,100.000,548.000,1.000
38146.652,38106.688,38386.531,38109.102,38240.082,38392.340,38466.012,38681.484,0.020,0.995,0.037,-1.495,-0.458,-0.031,100.000,549.000,1.000
38400.746,38360.961,38640.895,38363.105,38494.086,38646.703,38719.840,38935.848,0.022,0.996,0.041,-1.556,-0.336,-0.122,100.000,550.000,1.000
38565.074,38524.934,38805.313,38527.523,38658.328,38811.215,38884.348,39100.355,0.022,0.996,0.041,-1.526,-0.031,-0.183,100.000,551.000,1.000
38587.070,38547.016,38827.574,38549.699,38680.680,38833.387,38906.434,39122.527,0.021,0.995,0.042,-1.434,0.214,-0.214,100.000,552.000,1.000
38671.738,38631.684,38912.063,38634.277,38764.988,38918.055,38991.012,39207.020,0.020,0.996,0.042,-1.068,0.397,-0.092,100.000,553.000,1.000
38910.723,38871.027,39151.051,38873.441,39004.422,39157.129,39229.906,39446.449,0.019,0.999,0.043,-0.763,0.610,0.031,100.000,554.000,1.000
39097.941,39058.246,39338.090,39060.031,39191.551,39344.258,39417.125,39633.578,0.018,1.000,0.043,-0.610,0.671,0.244,100.000,555.000,1.000
39135.047,39095.258,39375.551,39097.137,39228.387,39381.363,39454.227,39670.324,0.017,1.000,0.044,-0.580,0.763,0.336,100.000,556.000,1.000
39195.664,39155.879,39436.348,39157.934,39289.094,39441.801,39515.203,39731.121,0.018,0.999,0.042,-0.305,0.671,0.397,100.000,557.000,1.000
39414.352,39374.836,39655.215,39376.711,39508.410,39660.938,39733.895,39950.078,0.017,1.001,0.040,-0.214,0.549,0.549,100.000,558.000,1.000
39625.980,39586.371,39867.289,39587.980,39720.035,39872.652,39945.430,40161.883,0.017,1.001,0.039,-0.122,0.397,0.580,100.000,559.000,1.000
39690.531,39650.656,39931.570,39652.355,39784.320,39937.117,40009.805,40225.898,0.021,1.000,0.039,0.000,0.244,0.610,100.000,560.000,1.000
39745.875,39705.820,39986.648,39707.785,39839.930,39992.367,40065.145,40281.332,0.022,1.002,0.040,-0.031,0.000,0.549,100.000,561.000,1.000
39954.996,39915.566,40196.129,39917.445,40049.230,40202.117,40274.359,40491.082,0.025,1.003,0.037,-0.092,-0.061,0.519,100.000,562.000,1.000
40201.492,40162.152,40442.711,40163.941,40295.996,40448.969,40521.031,40737.844,0.023,1.005,0.035,-0.092,-0.122,0.366,100.000,563.000,1.000
40306.813,40267.652,40548.121,40268.906,40401.586,40554.023,40626.176,40843.254,0.025,1.006,0.041,-0.092,-0.214,0.122,100.000,564.000,1.000
40350.980,40311.461,40592.648,40312.625,40445.484,40598.102,40670.254,40887.422,0.028,1.005,0.042,-0.183,-0.397,-0.031,100.000,565.000,1.000
40522.285,40482.855,40764.039,40484.020,40617.055,40769.406,40841.645,41058.727,0.029,1.005,0.045,-0.214,-0.488,-0.061,100.000,566.000,1.000
40770.746,40731.496,41012.504,40732.750,40865.605,41017.777,41090.195,41307.188,0.030,1.004,0.044,-0.214,-0.549,-0.092,100.000,567.000,1.000
40907.180,40867.844,41149.027,40869.184,41002.133,41154.391,41226.543,41443.266,0.031,1.002,0.042,-0.153,-0.549,-0.244,100.000,568.000,1.000
40987.109,40947.414,41228.777,40948.844,41081.883,41234.410,41306.473,41523.016,0.031,1.001,0.042,0.183,-0.397,-0.397,100.000,569.000,1.000
41181.660,41141.965,41423.508,41143.305,41276.609,41429.230,41501.289,41718.102,0.029,1.001,0.040,0.427,-0.336,-0.366,100.000,570.000,1.000
41464.813,41425.207,41707.195,41426.637,41559.762,41712.469,41784.176,42001.254,0.026,0.999,0.036,0.671,-0.366,-0.336,100.000,571.000,1.000
41641.840,41602.230,41883.953,41603.215,41736.879,41889.406,41960.844,42178.102,0.027,0.999,0.032,0.793,-0.244,-0.549,100.000,572.000,1.000
41722.930,41683.680,41965.043,41684.309,41818.418,41970.676,42042.113,42259.641,0.025,0.997,0.035,1.068,-0.092,-0.610,100.000,573.000,1.000
41904.070,41865.000,42146.539,41865.805,41999.734,42151.906,42223.430,42441.137,0.028,0.995,0.036,1.190,0.244,-0.549,100.000,574.000,1.000
42210.199,42171.395,42452.938,42171.934,42305.863,42458.305,42529.383,42747.355,0.026,0.994,0.038,1.129,0.427,-0.488,100.000,575.000,1.000
42417.176,42378.375,42660.273,42379.090,42513.020,42665.281,42736.359,42954.602,0.025,0.991,0.035,0.885,0.580,-0.305,100.000,576.000,1.000
42504.707,42466.172,42747.891,42466.707,42600.727,42752.898,42823.977,43042.043,0.022,0.994,0.033,0.946,0.732,-0.275,100.000,577.000,1.000
42643.465,42604.750,42886.742,42605.289,42739.578,42892.016,42962.379,43180.711,0.025,0.993,0.034,0.885,0.824,-0.305,100.000,578.000,1.000
42929.836,42890.766,43172.934,42891.211,43025.770,43178.027,43248.215,43466.813,0.023,0.991,0.031,0.824,0.854,-0.366,100.000,579.000,1.000
43198.324,43159.164,43441.422,43159.699,43294.348,43446.430,43516.613,43735.480,0.023,0.990,0.027,0.977,0.854,-0.244,100.000,580.000,1.000
43339.410,43300.160,43582.418,43300.695,43435.344,43587.246,43657.520,43876.477,0.020,0.987,0.026,0.763,0.793,-0.427,100.000,581.000,1.000
43496.855,43457.871,43739.953,43458.766,43592.969,43744.781,43815.055,44034.547,0.017,0.986,0.019,0.732,0.488,-0.549,100.000,582.000,1.000
43786.711,43748.000,44030.078,43748.535,43883.094,44034.996,44104.820,44324.227,0.010,0.986,0.018,0.610,0.153,-0.549,100.000,583.000,1.000
44046.172,44007.367,44290.164,44007.992,44142.461,44294.273,44364.637,44583.598,0.009,0.981,0.021,0.427,-0.305,-0.702,100.000,584.000,1.000
44176.883,44137.723,44420.605,44138.617,44272.906,44424.719,44494.816,44714.129,0.012,0.980,0.019,0.366,-0.916,-0.641,100.000,585.000,1.000
44297.227,44258.156,44541.039,44258.781,44393.070,44545.152,44615.246,44834.473,0.015,0.978,0.020,0.305,-1.404,-0.610,100.000,586.000,1.000
44537.551,44498.391,44781.363,44499.016,44633.129,44785.211,44855.395,45074.707,0.018,0.977,0.020,0.183,-1.984,-0.427,100.000,587.000,1.000
44801.211,44762.141,45045.203,44763.305,44896.879,45048.871,45119.145,45338.637,0.023,0.982,0.020,0.122,-2.319,-0.336,100.000,588.000,1.000
44944.441,44905.641,45188.883,44906.535,45040.020,45192.012,45262.195,45481.867,0.025,0.982,0.020,-0.061,-2.502,-0.366,100.000,589.000,1.000
45057.008,45018.383,45301.535,45019.188,45152.852,45304.844,45374.758,45594.344,0.031,0.983,0.022,-0.305,-2.533,-0.275,100.000,590.000,1.000
45271.047,45232.156,45515.574,45233.137,45366.621,45518.883,45588.531,45808.473,0.031,0.984,0.023,-0.641,-2.502,-0.153,100.000,591.000,1.000
45546.867,45507.797,45791.039,45508.691,45642.355,45794.258,45864.262,46084.113,0.031,0.983,0.028,-1.068,-2.411,-0.031,100.000,592.000,1.000
45730.152,45691.258,45974.320,45691.977,45825.637,45977.539,46047.457,46267.309,0.031,0.985,0.030,-1.343,-2.106,-0.092,100.000,593.000,1.000
45863.902,45825.102,46108.344,45825.906,45959.301,46111.563,46181.031,46401.152,0.032,0.984,0.034,-1.556,-1.648,-0.061,100.000,594.000,1.000
46089.387,46050.316,46333.918,46051.480,46184.785,46336.777,46406.156,46626.457,0.032,0.986,0.038,-1.556,-1.221,-0.031,100.000,595.000,1.000
46406.516,46367.355,46650.773,46368.160,46501.645,46653.727,46722.836,46943.582,0.036,0.988,0.038,-1.740,-0.610,0.000,100.000,596.000,1.000
46611.973,46572.902,46856.500,46573.797,46707.371,46859.184,46928.383,47149.398,0.033,0.990,0.041,-1.801,-0.122,0.153,100.000,597.000,1.000
46726.594,46687.434,46971.301,46688.594,46822.168,46973.980,47043.539,47263.930,0.027,0.991,0.046,-1.831,0.366,0.183,100.000,598.000,1.000
46907.016,46867.945,47151.543,46869.195,47002.324,47154.227,47223.695,47444.172,0.023,0.991,0.046,-1.984,0.610,0.153,100.000,599.000,1.000
47174.520,47135.629,47418.961,47136.793,47269.563,47421.551,47490.844,47711.500,0.021,0.991,0.047,-1.892,0.671,0.244,100.000,600.000,1.000
47379.891,47340.461,47624.418,47341.980,47474.750,47627.012,47695.852,47916.867,0.016,0.993,0.047,-1.801,0.916,0.214,100.000,601.000,1.000
47514.895,47475.645,47759.422,47476.805,47610.023,47762.016,47830.770,48052.051,0.012,0.992,0.045,-1.801,0.916,0.153,100.000,602.000,1.000
47698.445,47659.375,47943.332,47660.805,47793.934,47945.746,48014.500,48235.871,0.010,0.991,0.042,-1.617,0.885,0.122,100.000,603.000,1.000
47982.133,47943.422,48227.379,47944.582,48077.531,48229.613,48298.367,48519.738,0.013,0.991,0.045,-1.526,0.732,0.244,100.000,604.000,1.000
48225.770,48186.609,48470.652,48188.219,48320.719,48472.980,48541.555,48763.285,0.013,0.992,0.042,-1.465,0.488,0.427,100.000,605.000,1.000
48371.680,48332.340,48616.031,48333.773,48466.184,48618.711,48686.840,48908.836,0.013,0.995,0.045,-1.343,0.275,0.305,100.000,606.000,1.000
48530.199,48490.859,48774.727,48492.379,48624.703,48777.051,48845.449,49067.000,0.014,0.996,0.040,-1.221,-0.122,0.458,100.000,607.000,1.000
48775.352,48735.566,49019.523,48737.355,48869.676,49022.027,49090.336,49311.973,0.011,0.997,0.048,-1.068,-0.427,0.549,100.000,608.000,1.000
49000.121,48960.871,49244.383,48962.305,49094.805,49247.066,49315.461,49537.012,0.013,0.994,0.047,-0.977,-0.793,0.549,100.000,609.000,1.000
49158.820,49119.301,49403.078,49120.910,49253.414,49405.941,49474.070,49695.797,0.015,0.996,0.048,-0.824,-1.038,0.488,100.000,610.000,1.000
49349.703,49310.273,49594.055,49311.797,49443.938,49596.379,49664.504,49886.324,0.017,0.997,0.043,-0.610,-1.160,0.488,100.000,611.000,1.000
49601.293,49562.133,49845.914,49563.742,49695.441,49848.238,49916.453,50138.363,0.017,0.996,0.042,-0.671,-1.282,0.580,100.000,612.000,1.000
49830.266,49791.016,50074.617,49792.805,49924.680,50077.031,50145.066,50367.332,0.016,0.998,0.039,-0.580,-1.251,0.519,100.000,613.000,1.000
49959.281,49919.852,50203.449,49921.820,50053.695,50205.953,50273.813,50496.078,0.016,1.003,0.043,-0.580,-1.251,0.458,100.000,614.000,1.000
50081.320,50042.250,50325.672,50044.039,50175.734,50328.172,50396.121,50618.211,0.019,1.003,0.043,-0.610,-1.160,0.488,100.000,615.000,1.000
50281.949,50242.969,50526.391,50244.578,50376.453,50528.891,50596.574,50819.020,0.022,1.000,0.041,-0.671,-1.068,0.519,100.000,616.000,1.000
50505.914,50467.203,50750.352,50468.813,50600.598,50753.125,50820.984,51042.984,0.026,0.999,0.035,-0.519,-0.916,0.519,100.000,617.000,1.000
50632.871,50593.980,50877.313,50595.949,50727.555,50879.902,50947.766,51169.762,0.028,0.997,0.034,-0.275,-0.732,0.397,100.000,618.000,1.000
50748.207,50709.316,50992.559,50711.551,50842.801,50995.238,51063.098,51285.363,0.032,0.999,0.037,-0.031,-0.488,0.336,100.000,619.000,1.000
50966.898,50928.273,51211.781,50930.598,51061.488,51214.375,51281.699,51504.055,0.031,0.999,0.038,0.000,-0.305,0.275,100.000,620.000,1.000
51225.641,51187.285,51470.617,51189.164,51320.500,51473.031,51540.266,51762.887,0.026,1.000,0.038,0.000,-0.092,0.183,100.000,621.000,1.000
51378.438,51339.547,51623.055,51341.871,51473.121,51625.559,51692.613,51915.594,0.024,0.997,0.038,0.031,0.031,0.031,100.000,622.000,1.000
51477.590,51438.609,51722.207,51441.023,51572.273,51724.531,51791.496,52014.926,0.023,0.993,0.037,0.061,0.061,0.031,100.000,623.000,1.000
51619.656,51580.945,51864.363,51583.000,51714.609,51866.867,51933.746,52156.902,0.024,0.992,0.032,0.061,0.153,-0.061,100.000,624.000,1.000
51812.598,51773.348,52056.859,51775.582,51907.012,52059.273,52126.328,52349.398,0.024,0.991,0.035,0.061,0.153,-0.122,100.000,625.000,1.000
51932.223,51892.887,52176.395,51895.301,52026.281,52178.719,52245.953,52469.383,0.024,0.994,0.037,0.122,0.122,-0.244,100.000,626.000,1.000
51995.793,51956.723,52240.141,51959.137,52089.938,52242.379,52309.434,52532.770,0.023,0.996,0.038,0.153,-0.061,-0.183,100.000,627.000,1.000
52105.586,52066.246,52349.398,52068.840,52199.730,52351.902,52419.137,52642.207,0.019,0.995,0.040,0.061,-0.122,-0.183,100.000,628.000,1.000
52273.668,52234.508,52517.660,52237.371,52368.082,52520.254,52587.488,52810.559,0.015,0.993,0.039,-0.061,-0.366,-0.275,100.000,629.000,1.000
52387.934,52349.129,52632.461,52351.813,52482.613,52634.965,52702.020,52925.180,0.013,0.991,0.039,-0.031,-0.580,-0.244,100.000,630.000,1.000
52437.195,52398.391,52681.723,52400.895,52531.609,52684.047,52750.926,52974.082,0.016,0.991,0.040,-0.153,-0.732,-0.244,100.000,631.000,1.000
52518.020,52479.039,52762.727,52481.988,52612.344,52765.141,52831.570,53054.996,0.020,0.991,0.041,-0.122,-0.763,-0.458,100.000,632.000,1.000
52663.305,52624.414,52908.012,52627.273,52757.988,52910.336,52976.855,53200.641,0.024,0.990,0.041,-0.305,-0.793,-0.397,100.000,633.000,1.000
52778.820,52739.926,53022.898,52742.609,52872.875,53025.582,53092.102,53315.887,0.025,0.992,0.041,-0.427,-0.519,-0.427,100.000,634.000,1.000
52820.840,52782.129,53065.191,52784.898,52914.984,53067.871,53134.121,53357.906,0.023,0.992,0.042,-0.671,-0.061,-0.610,100.000,635.000,1.000
52889.504,52850.793,53133.676,52853.383,52983.652,53136.715,53203.055,53426.395,0.022,0.990,0.042,-0.854,0.275,-0.641,100.000,636.000,1.000
53029.336,52990.445,53273.508,52992.949,53123.305,53276.367,53342.977,53566.227,0.022,0.989,0.042,-1.099,0.458,-0.610,100.000,637.000,1.000
53160.406,53121.695,53404.938,53124.555,53254.645,53407.352,53473.957,53697.297,0.021,0.990,0.039,-1.312,0.793,-0.580,100.000,638.000,1.000
53205.023,53166.578,53449.281,53168.902,53299.078,53451.785,53518.305,53741.910,0.023,0.990,0.034,-1.251,1.099,-0.488,100.000,639.000,1.000
53254.734,53216.199,53499.352,53219.059,53348.969,53501.852,53568.281,53792.246,0.022,0.988,0.034,-1.129,1.404,-0.397,100.000,640.000,1.000
53373.375,53335.109,53618.082,53338.238,53467.969,53620.855,53687.461,53911.246,0.026,0.988,0.037,-0.916,1.526,-0.214,100.000,641.000,1.000
53503.641,53464.840,53748.168,53468.234,53598.145,53751.031,53817.551,54041.156,0.026,0.989,0.040,-0.854,1.495,-0.031,100.000,642.000,1.000
53542.266,53502.570,53786.258,53505.789,53636.145,53788.852,53855.367,54079.066,0.024,0.991,0.039,-0.763,1.434,0.183,100.000,643.000,1.000
53567.836,53528.316,53811.648,53531.715,53661.891,53814.598,53881.207,54104.637,0.021,0.995,0.040,-0.732,1.404,0.305,100.000,644.000,1.000
53654.113,53614.773,53898.195,53618.441,53748.438,53901.234,53967.754,54191.180,0.019,0.992,0.038,-0.549,1.038,0.549,100.000,645.000,1.000
53776.512,53737.262,54020.504,53740.926,53870.746,54023.633,54089.883,54313.578,0.017,0.989,0.042,-0.244,0.610,0.671,100.000,646.000,1.000
53813.258,53774.188,54057.605,53777.762,53907.402,54060.199,54126.629,54350.594,0.022,0.988,0.041,0.153,0.122,0.854,100.000,647.000,1.000
53814.777,53775.527,54059.129,53779.461,53909.012,54061.543,54127.969,54352.113,0.024,0.990,0.040,0.488,-0.336,1.160,100.000,648.000,1.000
53875.219,53836.324,54119.746,53840.168,53969.543,54122.160,54188.590,54412.375,0.025,0.992,0.040,0.763,-0.702,1.312,100.000,649.000,1.000
53990.910,53951.930,54235.527,53955.773,54085.590,54237.941,54304.191,54527.797,0.024,0.993,0.038,0.854,-0.824,1.312,100.000,650.000,1.000
54047.059,54008.254,54291.496,54012.008,54141.828,54294.090,54360.250,54584.035,0.028,0.994,0.040,0.854,-1.007,1.373,100.000,651.000,1.000
54053.852,54015.141,54298.289,54018.625,54148.266,54300.703,54366.777,54590.832,0.033,0.997,0.037,0.793,-1.038,1.190,100.000,652.000,1.000
54112.949,54074.328,54357.656,54077.633,54207.008,54359.980,54425.965,54649.930,0.034,0.997,0.035,0.458,-0.916,1.038,100.000,653.000,1.000
54242.145,54203.340,54486.492,54206.648,54336.199,54488.996,54555.246,54778.941,0.030,1.000,0.033,0.183,-0.763,0.916,100.000,654.000,1.000
54316.352,54277.371,54560.879,54281.035,54410.766,54563.203,54629.453,54853.238,0.026,0.998,0.031,-0.153,-0.488,0.732,100.000,655.000,1.000
54309.645,54270.574,54554.262,54274.418,54403.969,54556.676,54623.285,54846.535,0.027,0.998,0.034,-0.336,-0.336,0.580,100.000,656.000,1.000
54332.445,54293.730,54577.152,54297.574,54426.410,54579.656,54646.082,54869.781,0.025,0.997,0.033,-0.549,-0.183,0.336,100.000,657.000,1.000
54430.613,54391.898,54675.320,54395.566,54524.758,54677.914,54743.984,54967.859,0.021,0.996,0.035,-0.702,0.000,0.275,100.000,658.000,1.000
54516.531,54477.730,54761.152,54481.219,54610.770,54763.742,54829.547,55053.602,0.013,0.997,0.037,-0.885,0.092,0.244,100.000,659.000,1.000
54511.793,54473.262,54756.500,54476.656,54606.387,54759.004,54825.168,55049.043,0.010,0.998,0.035,-1.160,0.061,0.061,100.000,660.000,1.000
54512.152,54473.262,54756.324,54476.836,54606.566,54759.184,54824.988,55049.219,0.011,1.000,0.038,-1.312,0.183,0.092,100.000,661.000,1.000
54587.699,54549.078,54832.496,54552.477,54682.027,54834.734,54900.984,55125.035,0.013,1.001,0.035,-1.312,0.153,0.031,100.000,662.000,1.000
54677.109,54638.754,54921.816,54642.238,54771.699,54924.406,54990.746,55214.535,0.019,1.002,0.034,-1.312,0.122,-0.122,100.000,663.000,1.000
54663.070,54624.449,54907.152,54627.754,54757.395,54910.012,54975.996,55200.316,0.020,1.002,0.036,-1.221,0.153,-0.153,100.000,664.000,1.000
54618.816,54580.012,54863.164,54583.230,54712.781,54865.758,54931.473,55155.523,0.020,1.002,0.032,-1.282,0.000,-0.122,100.000,665.000,1.000
54642.953,54604.508,54887.750,54607.641,54737.457,54890.434,54956.148,55180.023,0.019,1.003,0.035,-0.946,-0.458,-0.214,100.000,666.000,1.000
54713.766,54674.961,54958.293,54678.270,54808.625,54961.066,55026.602,55251.102,0.018,1.005,0.038,-0.732,-0.763,-0.336,100.000,667.000,1.000
54694.633,54655.918,54939.250,54659.496,54789.047,54942.020,55007.734,55231.969,0.024,1.000,0.035,-0.519,-1.129,-0.244,100.000,668.000,1.000
54631.152,54592.797,54875.859,54596.016,54725.656,54878.543,54944.258,55168.578,0.026,1.000,0.033,0.000,-1.221,0.000,100.000,669.000,1.000
54635.445,54597.090,54879.883,54600.039,54729.770,54882.566,54948.367,55172.691,0.028,1.003,0.036,0.671,-1.373,-0.061,100.000,670.000,1.000
54713.855,54675.320,54958.293,54678.449,54807.910,54961.066,55026.957,55250.742,0.034,1.000,0.039,0.946,-1.587,0.061,100.000,671.000,1.000
54722.168,54683.637,54967.145,54687.211,54816.672,54969.559,55035.453,55259.238,0.038,0.999,0.039,1.373,-1.495,0.183,100.000,672.000,1.000
54662.000,54623.195,54906.883,54626.949,54756.770,54909.566,54975.281,55199.422,0.040,1.002,0.042,1.648,-1.343,0.305,100.000,673.000,1.000
54644.652,54605.672,54889.270,54609.426,54739.336,54892.223,54957.848,55181.898,0.036,1.000,0.041,1.526,-1.160,0.458,100.000,674.000,1.000
54711.887,54673.352,54956.953,54677.199,54806.836,54959.188,55024.992,55249.313,0.032,0.997,0.040,1.526,-0.916,0.580,100.000,675.000,1.000
54735.848,54697.047,54980.465,54701.070,54830.262,54983.059,55048.594,55273.273,0.028,0.994,0.042,1.678,-0.610,0.763,100.000,676.000,1.000
54671.027,54632.047,54915.469,54636.070,54764.996,54918.328,54983.773,55208.098,0.023,0.991,0.037,1.801,-0.519,0.824,100.000,677.000,1.000
54628.293,54589.488,54873.000,54593.422,54722.707,54875.859,54941.305,55165.359,0.021,0.990,0.038,1.831,-0.244,0.977,100.000,678.000,1.000
54688.730,54650.105,54933.082,54654.043,54783.414,54936.211,55002.191,55225.797,0.019,0.986,0.035,1.862,-0.092,1.160,100.000,679.000,1.000
54743.715,54704.824,54988.066,54708.578,54837.684,54990.746,55056.730,55280.605,0.018,0.985,0.036,1.892,0.183,1.404,100.000,680.000,1.000
54681.938,54642.777,54926.375,54646.801,54775.902,54928.879,54995.039,55218.824,0.017,0.983,0.041,1.770,0.336,1.556,100.000,681.000,1.000
54600.309,54561.324,54844.836,54565.348,54694.633,54847.430,54913.500,55137.105,0.014,0.982,0.038,1.465,0.458,1.587,100.000,682.000,1.000
54618.188,54579.297,54862.449,54582.875,54711.977,54864.863,54931.023,55154.809,0.017,0.984,0.036,1.068,0.519,1.617,100.000,683.000,1.000
54663.430,54624.359,54907.688,54627.934,54757.215,54909.926,54976.266,55200.141,0.017,0.985,0.034,0.793,0.519,1.617,100.000,684.000,1.000
54603.168,54564.457,54847.695,54567.762,54697.227,54850.109,54916.273,55139.879,0.022,0.985,0.033,0.488,0.610,1.587,100.000,685.000,1.000
54509.738,54470.848,54754.266,54474.602,54604.063,54756.680,54822.664,55046.715,0.028,0.985,0.038,0.153,0.854,1.465,100.000,686.000,1.000
54504.465,54465.750,54748.902,54469.238,54599.055,54751.762,54817.297,55041.711,0.031,0.987,0.036,-0.244,1.099,1.190,100.000,687.000,1.000
54569.371,54530.750,54813.813,54534.145,54663.965,54816.227,54882.566,55106.531,0.033,0.989,0.037,-0.397,1.312,1.068,100.000,688.000,1.000
54537.188,54498.563,54781.535,54501.961,54631.602,54784.039,54850.020,55074.164,0.036,0.996,0.047,-0.549,1.648,0.702,100.000,689.000,1.000
54436.961,54397.980,54681.223,54401.645,54531.016,54683.637,54749.797,54973.762,0.030,0.997,0.050,-0.763,2.106,0.244,100.000,690.000,1.000
54416.039,54377.328,54660.391,54380.633,54510.098,54662.891,54728.875,54952.840,0.029,1.000,0.041,-0.885,2.197,-0.122,100.000,691.000,1.000
54506.699,54467.895,54751.227,54471.113,54600.754,54753.371,54819.086,55043.496,0.030,1.007,0.042,-1.099,2.167,-0.641,100.000,692.000,1.000
54523.148,54483.988,54767.500,54487.656,54617.207,54769.914,54835.805,55060.039,0.020,0.990,0.022,-1.740,1.617,-0.763,100.000,693.000,1.000
54440.180,54401.020,54684.441,54404.953,54534.414,54686.941,54753.105,54977.156,0.013,0.990,0.020,-1.190,1.038,-0.763,100.000,694.000,1.000
54400.484,54361.680,54644.652,54365.258,54494.539,54647.246,54713.316,54937.730,0.015,0.996,0.023,-0.824,0.580,-0.793,100.000,695.000,1.000
54485.508,54447.152,54730.395,54450.461,54579.922,54732.629,54798.703,55022.934,0.016,0.996,0.027,-0.763,0.214,-1.038,100.000,696.000,1.000
54536.828,54497.578,54781.445,54501.512,54630.883,54783.859,54849.754,55073.719,0.018,0.991,0.031,-0.916,-0.305,-1.007,100.000,697.000,1.000
54467.090,54428.109,54712.066,54431.863,54561.594,54714.211,54780.105,55004.160,0.018,0.990,0.034,-1.038,-0.580,-1.007,100.000,698.000,1.000
54408.082,54369.102,54652.879,54372.676,54502.496,54655.203,54720.918,54944.883,0.018,0.989,0.032,-1.129,-0.824,-0.885,100.000,699.000,1.000
54474.871,54435.797,54719.844,54439.910,54569.195,54722.078,54787.973,55012.117,0.017,0.986,0.029,-1.068,-0.885,-0.732,100.000,700.000,1.000
54542.105,54502.496,54786.633,54506.789,54635.801,54788.867,54854.492,55078.902,0.020,0.990,0.032,-0.946,-1.007,-0.702,100.000,701.000,1.000
54469.328,54429.719,54713.496,54433.922,54563.023,54715.820,54781.805,55006.125,0.025,0.992,0.033,-0.854,-1.099,-0.580,100.000,702.000,1.000
54370.086,54330.746,54614.344,54334.770,54463.695,54616.578,54682.742,54907.152,0.028,0.991,0.036,-0.854,-1.099,-0.488,100.000,703.000,1.000
54398.426,54359.086,54642.863,54363.199,54492.125,54645.191,54711.262,54935.852,0.027,0.993,0.031,-0.641,-0.977,-0.397,100.000,704.000,1.000
54463.961,54424.891,54708.758,54428.824,54557.930,54710.992,54777.066,55001.477,0.024,0.993,0.030,-0.275,-0.916,-0.336,100.000,705.000,1.000
54393.152,54354.707,54638.039,54358.105,54487.656,54640.273,54706.254,54930.668,0.025,0.991,0.030,0.092,-0.793,-0.061,100.000,706.000,1.000
54261.992,54223.188,54506.609,54226.945,54356.316,54509.113,54575.273,54799.418,0.027,0.989,0.035,0.275,-0.732,0.183,100.000,707.000,1.000
54255.555,54216.750,54500.172,54220.508,54349.879,54502.676,54569.285,54792.891,0.031,0.990,0.033,0.336,-0.641,0.549,100.000,708.000,1.000
54350.324,54311.613,54594.941,54314.922,54444.293,54597.090,54663.520,54887.484,0.033,0.990,0.033,0.244,-0.580,0.763,100.000,709.000,1.000
54330.477,54291.316,54575.094,54295.160,54424.266,54577.063,54643.133,54867.633,0.033,0.995,0.030,0.275,-0.671,0.946,100.000,710.000,1.000
54212.461,54173.391,54457.078,54177.680,54306.785,54459.223,54525.652,54749.707,0.031,0.994,0.032,0.214,-0.549,1.129,100.000,711.000,1.000
54184.297,54145.406,54428.645,54149.250,54278.801,54430.883,54497.758,54721.273,0.029,0.994,0.033,0.153,-0.641,1.282,100.000,712.000,1.000
54283.984,54244.914,54528.156,54248.848,54378.488,54530.570,54596.910,54820.785,0.030,0.996,0.037,0.031,-0.732,1.251,100.000,713.000,1.000
54292.301,54253.141,54536.559,54256.715,54386.625,54538.973,54605.137,54829.102,0.029,1.000,0.036,-0.031,-0.854,1.221,100.000,714.000,1.000
54189.570,54150.770,54433.922,54154.344,54284.164,54436.246,54502.766,54726.551,0.024,1.003,0.039,-0.092,-0.885,1.007,100.000,715.000,1.000
54164.984,54126.449,54409.336,54129.938,54259.668,54412.105,54478.266,54702.141,0.018,1.000,0.041,-0.153,-0.793,0.885,100.000,716.000,1.000
54288.277,54249.742,54532.984,54253.141,54383.137,54535.578,54601.559,54825.344,0.013,0.999,0.043,-0.275,-1.038,0.671,100.000,717.000,1.000
54362.484,54323.773,54607.191,54327.617,54457.258,54609.695,54675.766,54899.820,0.010,0.998,0.045,-0.366,-1.221,0.458,100.000,718.000,1.000
54310.184,54271.379,54554.621,54275.223,54404.508,54557.125,54623.105,54847.250,0.010,1.000,0.050,-0.488,-1.373,0.336,100.000,719.000,1.000
54289.887,54250.816,54534.324,54254.660,54384.121,54536.738,54602.988,54827.223,0.011,1.001,0.048,-0.641,-1.740,0.275,100.000,720.000,1.000
54427.930,54389.219,54672.727,54392.883,54522.434,54674.961,54741.125,54965.266,0.009,1.003,0.046,-0.916,-2.014,0.183,100.000,721.000,1.000
54555.961,54517.070,54800.668,54520.914,54650.465,54803.172,54868.977,55093.297,0.011,1.002,0.047,-0.916,-2.167,0.122,100.000,722.000,1.000
54519.305,54480.234,54763.832,54484.703,54613.449,54766.156,54832.320,55056.461,0.013,1.001,0.051,-0.793,-2.197,0.122,100.000,723.000,1.000
54463.605,54424.801,54708.402,54428.645,54557.840,54710.727,54776.527,55000.492,0.010,1.004,0.050,-0.641,-2.258,0.153,100.000,724.000,1.000
54570.980,54531.910,54816.047,54535.934,54665.395,54818.371,54883.816,55108.051,0.012,1.006,0.046,-0.610,-2.228,0.183,100.000,725.000,1.000
54718.859,54679.879,54963.926,54684.262,54813.273,54965.980,55031.785,55256.020,0.012,1.001,0.044,-0.397,-2.319,0.122,100.000,726.000,1.000
54720.113,54681.488,54965.090,54685.422,54814.793,54967.324,55033.039,55257.180,0.014,1.001,0.042,-0.061,-2.197,0.031,100.000,727.000,1.000
54659.137,54620.336,54903.664,54623.820,54753.105,54905.633,54971.793,55196.117,0.016,1.003,0.041,0.305,-1.892,-0.061,100.000,728.000,1.000
54718.949,54680.238,54963.480,54683.547,54813.184,54965.715,55031.785,55256.109,0.017,1.002,0.041,0.580,-1.678,-0.183,100.000,729.000,1.000
54848.500,54809.520,55092.852,54813.273,54942.648,55095.176,55160.891,55385.211,0.020,1.001,0.043,0.610,-1.434,-0.214,100.000,730.000,1.000
54846.625,54807.375,55091.152,54811.398,54940.949,55093.117,55158.922,55383.422,0.023,1.000,0.041,0.763,-1.099,-0.244,100.000,731.000,1.000
54766.695,54727.891,55011.758,54731.914,54861.375,55013.727,55079.441,55304.121,0.025,0.999,0.038,0.702,-0.763,-0.305,100.000,732.000,1.000
54808.445,54769.914,55053.332,54773.848,54902.949,55055.836,55121.461,55346.141,0.028,1.000,0.036,0.580,-0.580,-0.244,100.000,733.000,1.000
54971.973,54933.258,55216.770,54936.926,55066.117,55218.914,55284.449,55509.129,0.028,1.003,0.034,0.549,-0.580,-0.397,100.000,734.000,1.000
55019.715,54980.914,55264.602,54984.938,55113.949,55266.566,55332.730,55556.961,0.025,1.002,0.032,0.427,-0.610,-0.580,100.000,735.000,1.000
54943.094,54904.559,55188.246,54908.672,55037.867,55190.125,55256.375,55480.250,0.025,1.000,0.033,0.458,-0.549,-0.854,100.000,736.000,1.000
54955.254,54916.359,55200.051,54920.832,55049.758,55201.836,55267.820,55492.141,0.026,0.999,0.034,0.519,-0.549,-1.007,100.000,737.000,1.000
55113.859,55075.148,55358.656,55079.082,55208.273,55360.715,55426.340,55650.840,0.026,0.998,0.035,0.458,-0.671,-1.221,100.000,738.000,1.000
55197.813,55158.922,55442.520,55163.125,55291.871,55444.488,55510.203,55734.883,0.025,0.995,0.030,0.488,-0.580,-1.129,100.000,739.000,1.000
55140.414,55101.164,55384.941,55105.547,55234.293,55387.180,55452.980,55677.484,0.025,0.994,0.036,0.610,-0.427,-1.129,100.000,740.000,1.000
55124.145,55085.340,55368.582,55089.273,55218.289,55371.176,55436.711,55661.301,0.023,0.995,0.032,0.763,-0.275,-1.007,100.000,741.000,1.000
55273.723,55235.008,55518.430,55239.477,55368.047,55521.199,55586.465,55810.969,0.024,0.994,0.031,0.671,0.031,-0.946,100.000,742.000,1.000
55398.531,55359.910,55643.598,55364.559,55493.215,55646.012,55711.637,55936.137,0.022,0.992,0.025,0.641,0.366,-0.763,100.000,743.000,1.000
55369.207,55330.762,55614.094,55335.055,55463.801,55616.598,55682.313,55906.543,0.019,0.991,0.028,0.824,0.580,-0.610,100.000,744.000,1.000
55348.555,55309.574,55593.262,55314.223,55442.699,55595.945,55661.301,55885.621,0.015,0.992,0.031,1.099,0.671,-0.519,100.000,745.000,1.000
55495.719,55457.094,55740.516,55461.742,55590.313,55743.375,55808.375,56033.055,0.011,0.989,0.034,1.190,0.702,-0.153,100.000,746.000,1.000
55662.195,55623.570,55906.902,55628.219,55756.520,55909.582,55974.762,56199.621,0.009,0.986,0.032,1.343,0.763,0.031,100.000,747.000,1.000
55679.359,55640.469,55923.977,55645.027,55773.508,55926.480,55991.660,56216.605,0.006,0.988,0.034,1.373,0.824,0.336,100.000,748.000,1.000
55661.836,55622.676,55906.098,55626.879,55755.895,55908.777,55974.047,56198.637,0.004,0.989,0.036,1.526,0.671,0.763,100.000,749.000,1.000
55791.207,55752.316,56035.648,55756.699,55885.355,56038.418,56103.418,56328.188,0.007,0.991,0.038,1.526,0.458,1.068,100.000,750.000,1.000
55984.773,55946.063,56229.301,55950.352,56078.922,56231.895,56296.805,56521.664,0.007,0.993,0.039,1.526,0.092,1.373,100.000,751.000,1.000
56035.824,55997.203,56280.621,56001.406,56130.238,56282.945,56348.035,56572.984,0.006,0.993,0.040,1.526,-0.275,1.526,100.000,752.000,1.000
56008.469,55969.934,56253.266,55974.223,56103.059,56255.855,56320.855,56545.625,0.011,0.996,0.042,1.526,-0.702,1.587,100.000,753.000,1.000
56106.277,56067.477,56351.164,56072.484,56200.871,56353.488,56418.758,56643.438,0.016,0.997,0.041,1.373,-1.160,1.617,100.000,754.000,1.000
56310.754,56272.129,56555.996,56277.137,56405.434,56558.141,56623.320,56848.000,0.014,0.997,0.041,1.343,-1.556,1.526,100.000,755.000,1.000
56395.777,56357.066,56640.754,56361.535,56490.461,56642.898,56707.988,56933.113,0.014,0.994,0.042,1.312,-1.923,1.404,100.000,756.000,1.000
56376.465,56337.844,56621.352,56342.223,56471.148,56623.320,56688.676,56913.625,0.020,0.994,0.046,1.221,-2.106,1.251,100.000,757.000,1.000
56453.000,56413.930,56697.617,56418.934,56547.590,56699.941,56765.297,56990.156,0.025,0.993,0.042,1.099,-2.106,1.007,100.000,758.000,1.000
56656.223,56617.063,56900.840,56622.156,56750.547,56902.984,56968.250,57193.469,0.028,0.994,0.041,0.916,-2.045,0.885,100.000,759.000,1.000
56766.816,56728.016,57011.344,56732.934,56861.051,57013.938,57078.668,57304.152,0.030,0.993,0.036,1.007,-1.831,0.793,100.000,760.000,1.000
56743.305,56704.680,56987.922,56709.418,56837.629,56990.516,57055.246,57280.281,0.033,0.994,0.034,1.007,-1.556,0.397,100.000,761.000,1.000
56776.027,56737.492,57021.180,56742.320,56870.797,57023.504,57088.504,57313.629,0.040,0.993,0.032,0.946,-1.190,0.214,100.000,762.000,1.000
56953.500,56914.965,57198.832,56920.152,57048.449,57201.156,57265.887,57491.461,0.041,0.995,0.029,0.732,-0.793,-0.122,100.000,763.000,1.000
57074.824,57036.109,57319.621,57041.297,57169.773,57322.215,57387.035,57612.875,0.039,0.997,0.031,0.580,-0.427,-0.427,100.000,764.000,1.000
57052.293,57013.313,57296.910,57018.586,57146.617,57299.504,57364.504,57589.809,0.038,0.998,0.038,0.244,0.092,-0.824,100.000,765.000,1.000
57052.027,57013.672,57296.910,57018.676,57146.617,57299.414,57364.324,57589.539,0.034,0.999,0.037,0.000,0.702,-1.007,100.000,766.000,1.000
57199.367,57161.102,57444.523,57165.750,57294.496,57447.113,57511.758,57736.973,0.033,0.995,0.041,-0.366,1.190,-1.251,100.000,767.000,1.000
57331.332,57293.156,57577.113,57298.344,57426.641,57579.348,57644.527,57869.383,0.029,0.993,0.038,-0.641,1.892,-1.343,100.000,768.000,1.000
57322.570,57284.305,57568.172,57289.668,57417.879,57570.406,57635.406,57860.711,0.024,0.992,0.036,-0.549,2.319,-1.404,100.000,769.000,1.000
57305.762,57267.676,57551.363,57272.949,57401.070,57553.777,57618.508,57843.992,0.018,0.991,0.032,-0.244,2.716,-1.465,100.000,770.000,1.000
57434.242,57396.242,57679.574,57401.605,57529.371,57682.344,57746.898,57972.648,0.015,0.993,0.032,-0.031,2.930,-1.556,100.000,771.000,1.000
57598.035,57560.035,57843.457,57565.223,57693.344,57846.137,57910.691,58136.621,0.021,0.992,0.030,0.122,3.082,-1.465,100.000,772.000,1.000
57632.277,57594.102,57877.789,57599.375,57727.406,57880.203,57944.484,58170.688,0.022,0.994,0.031,0.336,3.021,-1.587,100.000,773.000,1.000
57626.555,57587.930,57871.797,57593.387,57721.238,57874.121,57938.496,58164.160,0.024,0.996,0.029,0.488,2.930,-1.770,100.000,774.000,1.000
57755.031,57716.586,58000.277,57722.578,57850.160,58002.867,58067.242,58292.727,0.024,0.993,0.025,0.397,2.777,-1.740,100.000,775.000,1.000
57958.164,57919.543,58203.410,57925.352,58053.027,58205.734,58270.105,58495.949,0.019,0.992,0.022,0.336,2.350,-1.709,100.000,776.000,1.000
58040.777,58002.422,58286.020,58008.145,58135.551,58288.344,58352.539,58578.918,0.016,0.990,0.023,0.397,1.709,-1.495,100.000,777.000,1.000
58053.922,58015.566,58299.074,58021.465,58148.961,58301.488,58366.039,58591.613,0.014,0.988,0.024,0.519,1.099,-1.129,100.000,778.000,1.000
58175.602,58137.160,58420.668,58143.148,58270.820,58423.262,58487.453,58713.207,0.011,0.985,0.022,0.610,0.397,-0.763,100.000,779.000,1.000
58396.977,58359.156,58642.488,58364.520,58492.371,58645.168,58708.738,58934.848,0.007,0.985,0.023,0.763,-0.275,-0.397,100.000,780.000,1.000
58521.699,58483.789,58767.477,58489.512,58617.273,58770.070,58833.551,59059.211,0.006,0.983,0.022,0.916,-0.977,0.061,100.000,781.000,1.000
58552.902,58514.633,58798.500,58520.625,58648.207,58801.094,58864.664,59090.594,0.008,0.985,0.022,0.854,-1.801,0.214,100.000,782.000,1.000
58663.406,58624.961,58908.828,58631.133,58758.715,58911.066,58975.348,59200.922,0.011,0.985,0.026,0.763,-2.228,0.671,100.000,783.000,1.000
58884.867,58846.871,59130.469,58852.684,58980.355,59132.973,59197.078,59422.742,0.013,0.984,0.031,0.610,-2.716,1.129,100.000,784.000,1.000
59029.082,58990.816,59274.594,58996.984,59124.301,59277.098,59340.754,59566.777,0.015,0.987,0.033,0.275,-2.899,1.495,100.000,785.000,1.000
59080.402,59042.137,59325.555,59048.035,59175.531,59328.328,59391.984,59618.008,0.019,0.988,0.034,0.092,-2.960,1.862,100.000,786.000,1.000
59185.902,59147.547,59430.879,59153.805,59281.121,59434.008,59497.484,59723.863,0.020,0.991,0.037,-0.183,-2.747,2.289,100.000,787.000,1.000
59414.875,59376.520,59660.027,59383.043,59510.180,59662.801,59726.188,59952.836,0.023,0.993,0.039,-0.244,-2.472,2.472,100.000,788.000,1.000
59604.148,59565.883,59849.750,59572.320,59699.547,59852.254,59915.465,60142.109,0.029,0.996,0.040,-0.244,-1.923,2.472,100.000,789.000,1.000
59683.719,59645.453,59929.320,59652.070,59779.297,59931.824,59995.125,60221.773,0.033,0.996,0.045,-0.244,-1.221,2.197,100.000,790.000,1.000
59783.230,59744.785,60029.012,59751.492,59878.719,60031.336,60094.457,60321.371,0.034,0.997,0.048,-0.336,-0.397,1.984,100.000,791.000,1.000
60011.129,59972.953,60256.730,59979.391,60106.703,60259.324,60322.355,60549.359,0.034,0.999,0.051,-0.397,0.458,1.831,100.000,792.000,1.000
60235.539,60197.184,60480.961,60203.891,60331.027,60483.914,60546.676,60773.504,0.033,1.000,0.050,-0.458,1.404,1.434,100.000,793.000,1.000
60346.852,60308.496,60592.094,60315.113,60442.516,60595.047,60657.898,60885.082,0.033,1.000,0.045,-0.610,2.075,1.007,100.000,794.000,1.000
60456.734,60418.555,60702.156,60425.082,60552.309,60705.016,60767.602,60995.051,0.033,0.996,0.044,-0.366,2.625,0.671,100.000,795.000,1.000
60682.395,60643.863,60927.102,60650.656,60777.793,60930.234,60992.906,61220.270,0.028,0.997,0.042,-0.153,3.082,0.244,100.000,796.000,1.000
60927.191,60888.480,61171.898,60895.543,61022.410,61174.852,61237.793,61464.887,0.027,0.995,0.036,-0.061,3.418,0.092,100.000,797.000,1.000
61055.582,61016.688,61300.645,61023.754,61150.621,61303.238,61366.180,61593.273,0.025,0.992,0.033,0.000,3.326,-0.061,100.000,798.000,1.000
61147.848,61109.402,61393.539,61116.289,61243.336,61396.043,61458.895,61685.813,0.024,0.991,0.034,0.183,3.082,-0.214,100.000,799.000,1.000
61345.977,61307.887,61591.844,61314.949,61441.461,61594.527,61657.109,61884.293,0.021,0.992,0.036,0.183,2.747,-0.183,100.000,800.000,1.000
61604.359,61566.453,61849.961,61573.336,61699.938,61852.824,61915.320,62142.590,0.016,0.992,0.030,0.214,2.075,0.000,100.000,801.000,1.000
61763.148,61725.598,62008.926,61732.301,61858.813,62012.059,62074.285,62301.734,0.012,0.990,0.030,0.275,1.343,0.153,100.000,802.000,1.000
61857.473,61819.652,62103.430,61826.805,61952.781,62106.293,62168.609,62395.969,0.010,0.988,0.026,0.427,0.519,0.183,100.000,803.000,1.000
62027.793,61990.152,62273.750,61997.395,62123.816,62276.789,62338.840,62566.469,0.011,0.988,0.031,0.763,-0.397,0.366,100.000,804.000,1.000
62278.313,62240.492,62524.270,62247.645,62374.781,62527.219,62589.270,62816.988,0.014,0.987,0.031,1.099,-1.251,0.671,100.000,805.000,1.000
62462.223,62424.223,62708.359,62431.645,62558.422,62710.684,62772.820,63000.719,0.016,0.993,0.032,1.343,-1.892,1.038,100.000,806.000,1.000
62588.105,62550.465,62834.152,62557.707,62684.219,62836.836,62898.973,63126.516,0.020,0.991,0.035,1.282,-2.319,1.190,100.000,807.000,1.000
62747.430,62709.879,62993.297,62716.762,62843.363,62996.250,63058.117,63285.480,0.022,0.993,0.034,1.190,-2.655,1.404,100.000,808.000,1.000
62962.898,62925.082,63208.859,62932.500,63058.566,63211.539,63273.680,63501.219,0.029,0.995,0.039,1.221,-2.563,1.556,100.000,809.000,1.000
63102.645,63065.094,63348.691,63072.512,63198.309,63351.375,63413.063,63640.875,0.029,0.995,0.037,1.099,-2.289,1.465,100.000,810.000,1.000
63168.895,63131.344,63414.586,63138.496,63264.648,63417.805,63479.047,63707.035,0.031,0.997,0.038,1.068,-1.831,1.221,100.000,811.000,1.000
63287.270,63249.719,63533.406,63256.961,63383.469,63536.355,63597.691,63825.945,0.029,0.996,0.039,0.793,-1.190,1.068,100.000,812.000,1.000
63496.035,63458.305,63742.352,63465.813,63592.594,63745.211,63806.453,64034.266,0.031,0.997,0.040,0.580,-0.610,0.793,100.000,813.000,1.000
63658.574,63620.578,63904.445,63628.355,63754.867,63907.754,63968.641,64197.164,0.032,0.997,0.040,0.488,0.031,0.488,100.000,814.000,1.000
63730.816,63692.996,63976.688,63700.953,63827.375,63979.992,64040.969,64269.492,0.033,0.997,0.037,0.305,0.793,0.275,100.000,815.000,1.000
63831.488,63793.938,64077.180,63801.270,63927.781,64080.309,64141.465,64369.898,0.031,0.997,0.033,0.153,1.221,-0.061,100.000,816.000,1.000
64028.453,63991.082,64274.145,63998.949,64124.742,64277.629,64338.695,64566.773,0.030,0.996,0.035,0.000,1.495,-0.397,100.000,817.000,1.000
64205.656,64168.465,64451.973,64176.152,64302.305,64455.191,64515.898,64744.246,0.028,0.995,0.037,-0.305,1.617,-0.702,100.000,818.000,1.000
64292.828,64255.816,64539.234,64263.055,64389.387,64542.184,64603.070,64831.773,0.023,0.989,0.033,-0.519,1.587,-0.824,100.000,819.000,1.000
64382.773,64345.398,64629.266,64353.000,64479.332,64632.129,64692.746,64921.629,0.017,0.989,0.029,-0.519,1.282,-0.885,100.000,820.000,1.000
64562.391,64524.840,64808.887,64532.797,64658.684,64811.656,64872.188,65101.066,0.012,0.987,0.030,-0.488,0.916,-0.732,100.000,821.000,1.000
64755.332,64717.961,65001.914,64726.004,64851.711,65004.598,65065.395,65294.188,0.011,0.986,0.027,-0.397,0.336,-0.824,100.000,822.000,1.000
64865.570,64828.375,65112.066,64835.977,64961.863,65114.926,65175.723,65404.605,0.017,0.986,0.025,-0.275,-0.366,-0.641,100.000,823.000,1.000
64967.227,64929.855,65213.363,64937.363,65063.605,65216.672,65277.199,65506.172,0.020,0.984,0.027,-0.183,-1.068,-0.336,100.000,824.000,1.000
65152.656,65115.461,65398.883,65123.418,65249.215,65402.461,65462.898,65691.781,0.023,0.986,0.026,-0.122,-1.251,-0.153,100.000,825.000,1.000
65376.352,65339.160,65623.023,65347.117,65472.465,65626.156,65686.234,65915.297,0.026,0.986,0.025,-0.061,-1.648,0.031,100.000,826.000,1.000
65517.793,65480.867,65764.109,65488.648,65614.352,65767.594,65827.586,66056.828,0.028,0.986,0.026,0.153,-2.045,0.183,100.000,827.000,1.000
65644.039,65607.383,65890.891,65615.250,65740.867,65894.109,65954.188,66183.609,0.034,0.987,0.030,0.549,-2.289,0.641,100.000,828.000,1.000
65824.102,65787.531,66070.953,65795.758,65921.109,66074.352,66134.438,66363.766,0.037,0.987,0.030,0.641,-2.319,0.946,100.000,829.000,1.000
66029.914,65992.992,66276.773,66001.305,66126.742,66280.164,66340.156,66569.313,0.038,0.990,0.037,1.099,-2.045,1.099,100.000,830.000,1.000
66137.297,66100.367,66384.148,66108.688,66233.852,66387.453,66447.359,66676.508,0.036,0.992,0.036,1.190,-1.709,1.221,100.000,831.000,1.000
66195.586,66158.664,66442.266,66167.070,66292.414,66445.484,66505.648,66734.891,0.034,0.989,0.035,1.160,-1.251,1.343,100.000,832.000,1.000
66321.828,66284.641,66568.508,66293.219,66418.656,66571.453,66631.805,66861.313,0.032,0.989,0.036,1.190,-0.793,1.434,100.000,833.000,1.000
66517.367,66480.438,66764.125,66488.664,66614.367,66767.258,66827.156,67056.664,0.028,0.989,0.037,1.282,-0.397,1.556,100.000,834.000,1.000
66629.836,66593.094,66876.688,66600.867,66726.758,66880.000,66939.727,67169.055,0.023,0.991,0.034,1.373,-0.153,1.556,100.000,835.000,1.000
66672.219,66636.008,66919.250,66643.609,66769.492,66922.734,66982.188,67211.609,0.022,0.990,0.035,1.343,0.122,1.617,100.000,836.000,1.000
66754.742,66718.258,67001.680,66726.133,66852.016,67005.078,67064.805,67294.133,0.026,0.991,0.035,1.221,0.275,1.587,100.000,837.000,1.000
66903.063,66866.406,67149.742,66874.633,67000.070,67153.492,67212.953,67442.727,0.028,0.988,0.031,1.068,0.580,1.434,100.000,838.000,1.000
67011.516,66974.859,67258.281,66983.172,67108.609,67261.859,67321.313,67551.266,0.027,0.991,0.032,0.732,0.732,1.160,100.000,839.000,1.000
67048.977,67012.414,67296.367,67020.633,67146.703,67299.500,67359.039,67588.727,0.023,0.992,0.033,0.336,0.916,0.916,100.000,840.000,1.000
67113.891,67077.234,67361.102,67085.547,67211.523,67364.406,67423.773,67653.461,0.025,0.992,0.031,-0.183,0.977,0.702,100.000,841.000,1.000
67251.844,67215.094,67499.055,67223.414,67349.203,67502.180,67561.547,67791.414,0.024,0.991,0.027,-0.824,0.946,0.275,100.000,842.000,1.000
67371.203,67334.727,67618.766,67342.945,67468.477,67621.719,67680.992,67910.953,0.024,0.988,0.023,-1.190,0.916,-0.122,100.000,843.000,1.000
67417.242,67380.859,67664.547,67389.086,67514.609,67668.211,67727.219,67956.820,0.025,0.986,0.021,-1.373,0.610,-0.397,100.000,844.000,1.000
67495.477,67459.180,67742.867,67467.047,67592.844,67746.086,67805.453,68035.406,0.025,0.985,0.024,-1.495,0.397,-0.610,100.000,845.000,1.000
67663.469,67627.352,67910.773,67635.578,67760.570,67914.078,67973.711,68203.313,0.027,0.985,0.024,-1.465,0.275,-0.702,100.000,846.000,1.000
67831.648,67795.617,68078.945,67803.484,67928.836,68082.344,68141.617,68370.953,0.030,0.987,0.023,-1.404,-0.031,-0.641,100.000,847.000,1.000
67896.914,67860.883,68144.211,67868.750,67994.188,68148.055,68206.891,68436.578,0.032,0.989,0.024,-1.404,-0.214,-0.671,100.000,848.000,1.000
67951.453,67915.242,68198.930,67923.469,68048.906,68202.594,68261.430,68491.289,0.030,0.992,0.026,-1.373,-0.397,-0.671,100.000,849.000,1.000
68074.211,68038.000,68321.508,68045.867,68171.570,68324.992,68384.094,68614.133,0.028,0.992,0.027,-1.312,-0.610,-0.641,100.000,850.000,1.000
68217.703,68181.586,68465.094,68189.367,68315.156,68468.586,68527.594,68757.633,0.025,0.994,0.026,-1.129,-0.916,-0.580,100.000,851.000,1.000
68271.172,68234.875,68518.828,68243.367,68368.539,68522.313,68581.234,68811.281,0.023,0.994,0.029,-0.885,-1.160,-0.458,100.000,852.000,1.000
68305.773,68269.477,68553.070,68277.695,68403.047,68556.828,68615.477,68845.703,0.022,0.996,0.034,-0.641,-1.404,-0.183,100.000,853.000,1.000
68400.008,68363.617,68647.305,68371.844,68497.281,68650.969,68709.531,68939.844,0.020,0.997,0.038,-0.305,-1.556,-0.031,100.000,854.000,1.000
68532.594,68496.477,68780.164,68504.789,68630.227,68783.828,68842.391,69072.703,0.019,0.997,0.047,-0.214,-1.801,0.153,100.000,855.000,1.000
68577.125,68540.820,68824.422,68548.961,68674.219,68828.000,68886.648,69116.875,0.017,0.998,0.050,-0.061,-2.075,0.366,100.000,856.000,1.000
68576.586,68540.469,68823.617,68548.242,68673.680,68827.375,68886.109,69116.156,0.016,0.997,0.047,0.092,-2.136,0.549,100.000,857.000,1.000
68630.766,68594.289,68877.711,68602.422,68727.859,68881.555,68940.117,69170.430,0.017,0.999,0.047,0.214,-2.258,0.549,100.000,858.000,1.000
68734.656,68698.180,68981.867,68706.586,68831.844,68985.445,69044.008,69274.672,0.020,0.998,0.046,0.214,-2.289,0.641,100.000,859.000,1.000
68767.469,68731.617,69015.219,68739.844,68864.922,69018.523,69077.172,69307.664,0.023,0.998,0.043,0.458,-2.167,0.732,100.000,860.000,1.000
68747.797,68711.945,68995.461,68720.086,68845.523,68998.586,69057.508,69287.727,0.024,0.995,0.042,0.671,-2.014,0.580,100.000,861.000,1.000
68778.195,68741.813,69025.500,68750.211,68875.648,69028.898,69087.906,69317.773,0.027,0.997,0.040,0.580,-1.862,0.580,100.000,862.000,1.000
68873.414,68837.031,69120.445,68845.430,68970.961,69124.383,69183.211,69413.164,0.032,0.998,0.034,0.458,-1.617,0.427,100.000,863.000,1.000
68928.672,68892.281,69176.063,68900.688,69026.305,69179.813,69238.109,69468.508,0.033,0.994,0.028,0.275,-1.404,0.153,100.000,864.000,1.000
68914.453,68878.422,69161.664,68886.203,69012.000,69165.422,69224.164,69454.297,0.033,0.993,0.027,0.153,-1.129,-0.092,100.000,865.000,1.000
68932.695,68897.023,69180.172,68904.711,69030.594,69183.750,69242.758,69472.711,0.032,0.991,0.029,0.153,-0.977,-0.214,100.000,866.000,1.000
69028.000,68991.883,69275.570,69000.109,69125.813,69278.875,69337.797,69567.484,0.033,0.991,0.025,-0.061,-0.793,-0.366,100.000,867.000,1.000
69110.438,69074.133,69357.820,69082.359,69207.977,69361.133,69419.961,69649.914,0.035,0.992,0.024,-0.214,-0.641,-0.488,100.000,868.000,1.000
69107.750,69071.633,69355.141,69080.219,69205.297,69358.625,69417.188,69647.594,0.036,0.990,0.023,-0.336,-0.458,-0.702,100.000,869.000,1.000
69115.797,69079.766,69363.188,69088.086,69213.430,69366.672,69425.328,69655.906,0.032,0.989,0.023,-0.580,-0.153,-0.854,100.000,870.000,1.000
69199.750,69163.992,69447.141,69172.125,69297.828,69450.984,69509.727,69739.773,0.028,0.990,0.022,-0.763,0.153,-0.885,100.000,871.000,1.000
69294.344,69258.672,69541.734,69266.453,69392.242,69545.578,69604.141,69834.719,0.026,0.991,0.025,-1.038,0.153,-0.854,100.000,872.000,1.000
69293.719,69257.688,69541.016,69265.469,69391.086,69544.234,69602.977,69833.828,0.022,0.993,0.029,-1.312,0.153,-0.824,100.000,873.000,1.000
69285.227,69249.016,69532.523,69257.242,69382.586,69536.102,69594.664,69825.156,0.019,0.992,0.030,-1.465,0.122,-0.824,100.000,874.000,1.000
69357.109,69321.164,69604.586,69329.391,69454.648,69608.344,69666.727,69897.305,0.015,0.991,0.029,-1.495,-0.153,-0.793,100.000,875.000,1.000
69473.070,69437.125,69720.813,69445.266,69570.789,69724.211,69782.688,70013.266,0.014,0.990,0.031,-1.312,-0.397,-0.671,100.000,876.000,1.000
69496.586,69460.555,69744.242,69468.867,69594.484,69747.820,69805.930,70036.867,0.015,0.989,0.031,-1.038,-0.763,-0.519,100.000,877.000,1.000
