EEG 1,EEG 2,EEG 3,EEG 4,EEG 5,EEG 6,EEG 7,EEG 8,Accelerometer X,Accelerometer Y,Accelerometer Z,Gyroscope X,Gyroscope Y,Gyroscope Z,Battery Level,Counter,Validation Indicator
14198.991,-191654.688,-32473.867,-137406.547,-92258.711,-320597.625,77931.414,369031.875,0.097,0.951,0.324,0.000,0.000,0.000,100.000,1.000,1.000
-2673.000,3047.973,3741.235,-1617.372,1159.966,-2151.221,489.414,27857.338,0.100,0.962,0.318,0.000,0.000,0.000,100.000,2.000,1.000
-1715.005,-131.518,-6704.540,0.000,0.000,-71.704,0.000,6244.720,0.098,0.966,0.318,0.000,0.000,0.000,100.000,3.000,1.000
-1986.355,-2242.327,-28575.902,0.000,0.000,0.000,0.000,1431.227,0.098,0.966,0.318,0.000,0.000,0.000,100.000,4.000,1.000
-1980.901,-3909.410,-24834.221,0.000,0.000,-4.649,1.609,507.206,0.096,0.967,0.315,0.000,0.000,0.000,100.000,5.000,1.000
-1495.242,-3180.832,-7447.691,0.000,0.000,-90.390,-367.552,115.246,0.095,0.965,0.306,0.458,1.648,1.282,100.000,6.000,1.000
-1150.400,-2616.585,-438.541,-24.229,0.000,-756.025,-1613.707,-113.279,0.094,0.966,0.304,2.045,1.190,1.190,100.000,7.000,1.000
-901.401,-2218.187,-1203.239,-348.419,0.000,-1074.046,-1582.861,-246.763,0.094,0.966,0.301,2.228,0.122,0.458,100.000,8.000,1.000
-779.539,-1864.583,-1317.948,-817.806,180.781,-845.254,-1200.557,-292.897,0.094,0.965,0.299,2.197,-0.397,0.153,100.000,9.000,1.000
-727.505,-1507.044,-1121.342,-785.709,-102.460,-604.391,-866.264,-227.630,0.096,0.967,0.301,1.953,-0.610,-0.183,100.000,10.000,1.000
-609.040,-1175.612,-982.672,-538.856,-462.324,-353.336,-538.498,-59.187,0.098,0.965,0.298,1.678,-0.732,-0.305,100.000,11.000,1.000
-492.901,-943.959,-929.117,-321.060,-233.978,-100.851,-195.533,168.085,0.098,0.964,0.295,1.526,-0.641,-0.427,100.000,12.000,1.000
-385.702,-856.161,-1023.263,-105.858,-35.852,14.663,76.622,494.599,0.099,0.967,0.294,1.373,-0.427,-0.671,100.000,13.000,1.000
-284.493,-922.322,-1232.743,0.000,86.188,179.976,490.934,967.473,0.099,0.963,0.285,1.465,-0.183,-0.763,100.000,14.000,1.000
-221.551,-1019.329,-1438.648,12.070,268.668,412.703,711.054,1319.915,0.097,0.963,0.279,1.770,-0.092,-0.854,100.000,15.000,1.000
-240.684,-784.725,-1101.226,23.335,166.565,408.053,441.134,948.966,0.101,0.965,0.274,1.831,0.092,-0.946,100.000,16.000,1.000
-228.971,-528.038,-703.365,-56.416,123.650,125.706,142.336,434.786,0.103,0.967,0.270,1.801,0.397,-0.946,100.000,17.000,1.000
-209.570,-503.182,-336.260,-166.208,-105.679,-8.851,-153.065,86.367,0.107,0.968,0.268,1.556,0.641,-0.916,100.000,18.000,1.000
-227.004,-317.305,-145.018,-207.245,-226.200,-103.980,-214.040,-167.280,0.107,0.968,0.268,1.038,0.916,-0.977,100.000,19.000,1.000
-220.567,-246.674,-192.493,-178.725,-194.639,-184.268,-202.417,-191.242,0.108,0.967,0.266,0.458,1.251,-0.885,100.000,20.000,1.000
-192.493,-233.531,-189.453,-167.727,-178.456,-178.725,-195.712,-186.145,0.108,0.969,0.265,-0.214,1.526,-0.580,100.000,21.000,1.000
-180.870,-227.451,-184.268,-161.916,-173.718,-172.913,-190.616,-180.781,0.111,0.969,0.268,-0.824,1.678,-0.214,100.000,22.000,1.000
-176.668,-221.372,-179.350,-156.194,-169.158,-168.711,-185.967,-175.774,0.109,0.967,0.271,-1.160,1.740,0.061,100.000,23.000,1.000
-172.198,-216.275,-175.059,-152.171,-165.135,-164.866,-181.854,-171.125,0.112,0.963,0.272,-1.556,1.587,0.244,100.000,24.000,1.000
-168.890,-211.537,-171.572,-148.147,-161.737,-161.290,-178.188,-167.280,0.112,0.960,0.278,-1.678,1.556,0.458,100.000,25.000,1.000
-165.135,-207.067,-168.264,-144.660,-158.072,-157.714,-174.701,-164.151,0.110,0.961,0.285,-1.831,1.587,0.580,100.000,26.000,1.000
-162.005,-203.133,-165.135,-141.531,-154.853,-154.853,-170.946,-161.290,0.109,0.962,0.291,-1.617,1.434,0.763,100.000,27.000,1.000
-159.323,-199.109,-162.184,-138.313,-152.260,-151.992,-167.727,-157.982,0.106,0.962,0.291,-1.312,1.434,0.885,100.000,28.000,1.000
-156.105,-195.533,-159.502,-135.452,-149.667,-149.399,-165.135,-154.585,0.106,0.963,0.290,-1.038,1.221,0.977,100.000,29.000,1.000
-153.422,-192.136,-157.088,-133.395,-147.253,-146.717,-162.452,-152.350,0.106,0.964,0.292,-0.488,0.641,1.190,100.000,30.000,1.000
-151.455,-189.185,-154.853,-131.607,-144.750,-144.303,-160.396,-150.383,0.106,0.966,0.294,-0.183,0.244,1.160,100.000,31.000,1.000
-149.220,-186.235,-152.797,-129.551,-142.783,-142.425,-158.072,-148.147,0.106,0.967,0.294,-0.031,-0.244,1.129,100.000,32.000,1.000
-146.896,-183.284,-150.383,-127.494,-140.995,-140.548,-155.836,-146.270,0.106,0.971,0.294,0.031,-0.671,1.038,100.000,33.000,1.000
-145.197,-180.692,-148.326,-125.974,-139.117,-138.581,-153.959,-144.035,0.107,0.970,0.292,-0.031,-1.129,0.916,100.000,34.000,1.000
-143.230,-178.278,-146.806,-124.544,-137.419,-136.614,-151.902,-142.336,0.107,0.971,0.293,-0.153,-1.465,0.763,100.000,35.000,1.000
-141.799,-175.864,-144.571,-123.113,-135.630,-135.094,-150.114,-140.280,0.108,0.973,0.294,-0.336,-1.770,0.458,100.000,36.000,1.000
-140.011,-173.986,-143.141,-121.862,-133.842,-133.395,-148.326,-138.849,0.112,0.973,0.295,-0.549,-1.923,0.275,100.000,37.000,1.000
-138.670,-171.930,-141.799,-120.789,-132.501,-132.144,-146.538,-137.419,0.115,0.974,0.295,-0.702,-1.862,0.153,100.000,38.000,1.000
-137.329,-169.873,-140.458,-119.716,-131.249,-130.713,-145.376,-136.077,0.118,0.972,0.293,-0.702,-1.587,-0.031,100.000,39.000,1.000
-135.630,-168.175,-139.028,-118.822,-129.819,-129.461,-144.124,-134.289,0.123,0.970,0.291,-0.702,-1.373,-0.183,100.000,40.000,1.000
-134.289,-166.655,-137.776,-117.749,-128.388,-128.031,-142.336,-132.948,0.127,0.970,0.286,-0.580,-1.251,-0.244,100.000,41.000,1.000
-133.127,-165.045,-135.988,-116.855,-127.226,-127.137,-140.905,-131.607,0.129,0.970,0.284,-0.397,-1.099,-0.427,100.000,42.000,1.000
-132.233,-163.436,-135.094,-115.961,-126.421,-126.153,-139.654,-130.624,0.130,0.970,0.286,-0.214,-0.916,-0.488,100.000,43.000,1.000
-131.071,-161.916,-134.021,-115.424,-125.259,-125.259,-138.581,-129.730,0.129,0.969,0.293,0.122,-0.732,-0.549,100.000,44.000,1.000
-130.087,-160.843,-132.859,-114.799,-124.276,-124.007,-137.508,-128.746,0.131,0.969,0.297,0.122,-0.519,-0.580,100.000,45.000,1.000
-129.014,-159.681,-132.233,-114.173,-123.382,-123.113,-136.703,-127.852,0.130,0.971,0.298,-0.092,-0.366,-0.641,100.000,46.000,1.000
-127.941,-158.608,-131.339,-113.815,-122.488,-122.130,-135.541,-126.690,0.127,0.969,0.300,-0.336,-0.244,-0.610,100.000,47.000,1.000
-127.047,-157.356,-130.087,-113.100,-121.504,-121.325,-134.558,-125.349,0.126,0.970,0.301,-0.610,-0.214,-0.641,100.000,48.000,1.000
-126.153,-156.194,-129.551,-112.832,-120.610,-120.789,-133.395,-124.723,0.126,0.969,0.299,-0.885,-0.275,-0.397,100.000,49.000,1.000
-125.527,-155.032,-128.657,-112.563,-119.895,-119.716,-132.769,-124.097,0.125,0.966,0.293,-0.824,-0.458,-0.397,100.000,50.000,1.000
-124.633,-154.048,-127.673,-111.938,-119.448,-119.001,-132.144,-123.292,0.126,0.965,0.291,-0.610,-0.610,-0.153,100.000,51.000,1.000
-123.918,-153.065,-127.047,-111.580,-118.911,-118.375,-131.339,-122.577,0.128,0.966,0.293,-0.366,-0.732,-0.061,100.000,52.000,1.000
-123.203,-152.171,-126.243,-111.312,-117.838,-117.570,-130.534,-121.951,0.126,0.967,0.292,-0.092,-0.488,0.031,100.000,53.000,1.000
-122.756,-151.277,-125.796,-111.043,-117.213,-117.034,-129.819,-121.057,0.123,0.969,0.292,0.275,-0.061,0.122,100.000,54.000,1.000
-122.130,-150.383,-125.259,-110.507,-116.676,-116.318,-129.104,-120.789,0.116,0.973,0.292,0.336,0.305,0.153,100.000,55.000,1.000
-121.504,-149.757,-124.365,-110.328,-116.140,-115.782,-128.388,-119.895,0.112,0.973,0.294,0.366,0.671,0.061,100.000,56.000,1.000
-120.968,-149.220,-123.471,-110.149,-115.871,-115.246,-127.852,-119.269,0.110,0.975,0.294,0.366,0.763,0.000,100.000,57.000,1.000
-120.342,-148.147,-123.203,-109.702,-115.514,-114.799,-127.316,-118.911,0.106,0.978,0.291,0.275,0.702,-0.275,100.000,58.000,1.000
-119.716,-147.700,-122.845,-109.524,-114.888,-114.262,-126.779,-118.554,0.104,0.979,0.290,0.183,0.641,-0.366,100.000,59.000,1.000
-119.269,-147.432,-122.130,-109.434,-113.994,-113.904,-126.421,-118.196,0.105,0.977,0.287,0.031,0.427,-0.397,100.000,60.000,1.000
-118.822,-146.627,-121.683,-108.987,-113.726,-113.547,-125.974,-117.660,0.103,0.975,0.291,-0.183,0.153,-0.519,100.000,61.000,1.000
-118.464,-145.823,-121.415,-108.719,-113.457,-113.279,-125.349,-116.944,0.103,0.977,0.291,-0.305,-0.031,-0.610,100.000,62.000,1.000
-118.107,-145.197,-120.878,-108.719,-112.832,-112.563,-124.812,-116.587,0.104,0.977,0.297,-0.641,-0.214,-0.610,100.000,63.000,1.000
-117.570,-144.839,-120.521,-108.361,-112.474,-112.116,-124.365,-116.050,0.104,0.978,0.298,-0.793,-0.549,-0.610,100.000,64.000,1.000
-117.034,-144.571,-120.342,-108.093,-112.206,-111.580,-123.829,-115.782,0.103,0.978,0.297,-0.946,-0.793,-0.641,100.000,65.000,1.000
-116.944,-144.303,-119.895,-108.272,-112.027,-111.401,-123.471,-115.424,0.104,0.974,0.298,-1.129,-0.946,-0.519,100.000,66.000,1.000
-116.497,-143.588,-119.358,-108.182,-111.848,-111.222,-123.292,-114.799,0.106,0.973,0.299,-1.038,-1.129,-0.336,100.000,67.000,1.000
-116.140,-143.051,-119.090,-107.825,-111.222,-111.043,-122.845,-114.441,0.107,0.968,0.299,-0.793,-1.099,-0.183,100.000,68.000,1.000
-115.961,-142.694,-118.822,-107.735,-111.043,-110.596,-122.309,-114.530,0.104,0.967,0.306,-0.671,-1.038,-0.092,100.000,69.000,1.000
-115.693,-142.336,-118.375,-107.557,-110.775,-110.507,-122.041,-114.083,0.103,0.968,0.306,-0.549,-1.007,0.000,100.000,70.000,1.000
-115.514,-141.978,-118.196,-107.199,-110.328,-110.328,-121.951,-113.636,0.104,0.966,0.307,-0.397,-1.190,0.092,100.000,71.000,1.000
-114.977,-141.621,-117.838,-107.110,-110.060,-110.060,-121.772,-113.457,0.102,0.967,0.302,-0.031,-1.373,-0.031,100.000,72.000,1.000
-114.888,-141.174,-117.660,-107.199,-110.060,-109.702,-121.683,-113.189,0.107,0.968,0.301,0.275,-1.495,-0.061,100.000,73.000,1.000
-114.530,-140.816,-117.481,-106.752,-109.702,-109.345,-121.236,-113.010,0.108,0.968,0.301,0.580,-1.556,-0.153,100.000,74.000,1.000
-114.352,-140.727,-117.213,-106.752,-109.434,-109.077,-120.878,-112.832,0.109,0.968,0.296,0.793,-1.678,-0.305,100.000,75.000,1.000
-114.262,-140.280,-116.855,-106.573,-109.166,-108.808,-120.610,-112.563,0.108,0.967,0.294,0.916,-1.526,-0.427,100.000,76.000,1.000
-113.904,-140.011,-116.676,-106.573,-108.719,-108.719,-120.610,-112.295,0.105,0.967,0.296,0.916,-1.312,-0.549,100.000,77.000,1.000
-113.726,-139.654,-116.318,-106.573,-108.719,-108.719,-120.342,-112.295,0.106,0.968,0.292,0.885,-1.068,-0.641,100.000,78.000,1.000
-113.636,-139.385,-116.140,-106.573,-108.808,-108.361,-119.895,-111.848,0.105,0.969,0.290,0.854,-0.946,-0.763,100.000,79.000,1.000
-113.457,-139.028,-116.050,-106.484,-108.719,-107.914,-119.716,-111.669,0.106,0.970,0.285,0.732,-1.038,-0.854,100.000,80.000,1.000
-113.010,-139.028,-116.140,-106.215,-108.272,-107.735,-119.537,-111.491,0.107,0.969,0.289,0.854,-1.160,-1.099,100.000,81.000,1.000
-113.010,-138.670,-115.782,-106.305,-108.004,-107.825,-119.537,-111.401,0.112,0.969,0.290,0.946,-1.221,-1.038,100.000,82.000,1.000
-112.832,-138.491,-115.693,-106.037,-107.825,-107.735,-119.358,-111.222,0.113,0.968,0.288,1.007,-1.221,-1.007,100.000,83.000,1.000
-112.563,-138.134,-115.246,-105.858,-107.646,-107.467,-119.358,-111.043,0.113,0.968,0.294,1.038,-1.312,-0.854,100.000,84.000,1.000
-112.653,-138.044,-115.156,-105.858,-107.646,-107.288,-119.180,-110.954,0.109,0.969,0.294,0.854,-1.404,-0.641,100.000,85.000,1.000
-112.563,-137.776,-114.977,-105.679,-107.378,-107.199,-118.822,-110.596,0.105,0.971,0.297,0.824,-1.251,-0.519,100.000,86.000,1.000
-112.206,-137.597,-114.709,-105.679,-107.288,-107.020,-118.464,-110.596,0.103,0.971,0.300,0.580,-1.465,-0.244,100.000,87.000,1.000
-112.027,-137.240,-114.799,-105.679,-107.288,-106.931,-118.285,-110.328,0.100,0.974,0.302,0.397,-1.617,-0.122,100.000,88.000,1.000
-111.938,-137.329,-114.620,-105.768,-107.020,-106.841,-118.196,-110.418,0.100,0.975,0.301,0.153,-1.740,0.092,100.000,89.000,1.000
-111.848,-137.061,-114.620,-105.411,-107.020,-106.484,-118.196,-110.507,0.101,0.974,0.299,-0.031,-1.648,0.275,100.000,90.000,1.000
-111.669,-137.329,-114.530,-105.500,-106.931,-106.573,-118.107,-110.149,0.103,0.969,0.295,-0.275,-1.373,0.641,100.000,91.000,1.000
-111.669,-137.061,-114.352,-105.590,-106.663,-106.484,-117.928,-109.792,0.107,0.965,0.291,-0.458,-1.129,0.946,100.000,92.000,1.000
-111.580,-136.703,-114.173,-105.590,-106.663,-106.305,-117.660,-109.881,0.108,0.965,0.291,-0.244,-1.007,0.977,100.000,93.000,1.000
-111.222,-136.614,-113.904,-105.500,-106.484,-106.394,-117.481,-109.881,0.104,0.966,0.295,-0.244,-0.671,1.068,100.000,94.000,1.000
-111.043,-136.703,-114.083,-105.232,-106.394,-106.394,-117.302,-109.881,0.104,0.964,0.294,-0.092,-0.702,1.068,100.000,95.000,1.000
-110.954,-136.524,-113.994,-105.321,-106.305,-106.305,-117.391,-109.702,0.103,0.965,0.292,0.092,-0.549,0.916,100.000,96.000,1.000
-110.954,-135.988,-113.726,-105.321,-106.126,-106.037,-117.123,-109.613,0.101,0.965,0.290,0.305,-0.275,1.007,100.000,97.000,1.000
-110.686,-136.077,-113.726,-105.143,-105.858,-105.679,-117.034,-109.524,0.099,0.964,0.287,0.244,-0.092,0.793,100.000,98.000,1.000
-110.596,-136.077,-113.636,-105.143,-106.037,-105.858,-117.034,-109.255,0.100,0.966,0.288,0.366,0.183,0.610,100.000,99.000,1.000
-110.596,-135.809,-113.636,-105.053,-105.947,-105.858,-116.855,-108.987,0.099,0.968,0.288,0.305,0.275,0.427,100.000,100.000,1.000
-110.596,-135.809,-113.547,-105.232,-105.679,-105.679,-116.766,-108.987,0.096,0.965,0.289,0.397,0.244,0.305,100.000,101.000,1.000
-110.507,-135.630,-113.457,-105.143,-105.590,-105.858,-116.855,-109.166,0.098,0.964,0.287,0.610,0.153,0.031,100.000,102.000,1.000
-110.507,-135.541,-113.100,-105.053,-105.679,-105.679,-117.034,-108.987,0.101,0.968,0.289,0.916,-0.183,-0.427,100.000,103.000,1.000
-110.328,-135.273,-113.457,-104.785,-105.858,-105.590,-116.676,-108.719,0.100,0.969,0.287,0.854,-0.427,-0.488,100.000,104.000,1.000
-110.060,-135.452,-113.279,-105.053,-105.679,-105.411,-116.587,-108.540,0.101,0.969,0.286,0.610,-0.732,-0.397,100.000,105.000,1.000
-110.328,-135.362,-113.010,-104.785,-105.500,-105.500,-116.408,-108.719,0.102,0.970,0.284,0.366,-1.190,-0.427,100.000,106.000,1.000
-110.239,-135.362,-112.832,-104.696,-105.411,-105.232,-116.318,-108.719,0.102,0.973,0.281,-0.031,-1.556,-0.458,100.000,107.000,1.000
-110.239,-135.273,-113.010,-104.606,-105.411,-105.232,-116.587,-108.629,0.099,0.974,0.283,-0.488,-1.892,-0.488,100.000,108.000,1.000
-110.328,-135.273,-113.100,-104.696,-105.321,-105.143,-116.497,-108.540,0.098,0.975,0.287,-0.854,-1.984,-0.397,100.000,109.000,1.000
-110.149,-135.183,-112.921,-104.874,-105.232,-104.785,-116.318,-108.540,0.095,0.974,0.284,-1.160,-2.106,-0.336,100.000,110.000,1.000
-110.060,-134.826,-112.563,-104.696,-105.232,-104.785,-116.229,-108.451,0.094,0.972,0.283,-1.251,-1.923,-0.153,100.000,111.000,1.000
-110.060,-135.005,-112.742,-104.696,-105.143,-105.053,-116.318,-108.540,0.097,0.973,0.281,-1.251,-1.617,0.061,100.000,112.000,1.000
-109.881,-134.736,-112.653,-104.785,-105.143,-105.053,-116.140,-108.361,0.097,0.974,0.283,-1.129,-1.251,-0.031,100.000,113.000,1.000
-109.881,-134.468,-112.563,-104.874,-105.143,-104.785,-116.140,-108.361,0.095,0.973,0.290,-0.885,-0.732,0.031,100.000,114.000,1.000
-109.613,-134.647,-112.653,-105.053,-105.232,-104.696,-116.050,-108.272,0.095,0.972,0.293,-0.732,-0.458,0.153,100.000,115.000,1.000
-109.702,-134.468,-112.653,-104.696,-104.964,-104.785,-116.050,-108.093,0.097,0.969,0.293,-0.610,0.031,0.061,100.000,116.000,1.000
-109.702,-134.558,-112.563,-104.696,-105.143,-104.696,-116.050,-108.093,0.096,0.967,0.298,-0.427,0.214,0.153,100.000,117.000,1.000
-109.881,-134.379,-112.563,-104.696,-105.143,-104.517,-116.229,-108.093,0.096,0.968,0.304,-0.366,0.305,0.153,100.000,118.000,1.000
-109.613,-134.379,-112.385,-104.696,-104.785,-104.785,-115.961,-108.361,0.099,0.967,0.304,-0.366,0.275,0.092,100.000,119.000,1.000
-109.613,-134.289,-112.385,-104.785,-104.874,-104.696,-115.961,-108.182,0.102,0.964,0.305,-0.275,0.214,0.092,100.000,120.000,1.000
-109.702,-134.200,-112.295,-104.785,-104.964,-104.874,-115.782,-108.093,0.105,0.963,0.308,-0.153,0.031,0.214,100.000,121.000,1.000
-109.613,-134.200,-112.385,-104.606,-104.964,-104.696,-115.514,-108.272,0.108,0.962,0.310,-0.183,0.000,0.153,100.000,122.000,1.000
-109.613,-134.200,-112.295,-104.249,-104.785,-104.517,-115.782,-108.093,0.109,0.962,0.309,-0.031,-0.122,0.183,100.000,123.000,1.000
-109.434,-134.021,-112.206,-104.427,-104.696,-104.696,-115.961,-107.914,0.106,0.962,0.307,0.214,-0.336,0.153,100.000,124.000,1.000
-109.613,-134.200,-112.116,-104.338,-104.517,-104.517,-115.693,-107.914,0.105,0.963,0.307,0.519,-0.397,0.153,100.000,125.000,1.000
-109.434,-134.021,-112.295,-104.427,-104.696,-104.517,-115.514,-107.914,0.104,0.968,0.303,0.641,-0.793,0.214,100.000,126.000,1.000
-109.613,-134.110,-112.295,-104.606,-104.606,-104.517,-115.603,-107.825,0.106,0.969,0.302,0.702,-1.038,0.183,100.000,127.000,1.000
-109.524,-134.021,-112.116,-104.696,-104.696,-104.517,-115.693,-107.735,0.105,0.969,0.298,0.763,-1.312,0.183,100.000,128.000,1.000
-109.345,-134.021,-112.116,-104.427,-104.696,-104.427,-115.424,-107.646,0.104,0.970,0.295,0.702,-1.801,0.153,100.000,129.000,1.000
-109.345,-134.021,-112.295,-104.338,-104.696,-104.427,-115.424,-107.646,0.104,0.970,0.292,0.488,-2.197,0.122,100.000,130.000,1.000
-109.345,-133.932,-112.116,-104.517,-104.517,-104.606,-115.424,-107.914,0.105,0.970,0.292,0.092,-2.502,0.122,100.000,131.000,1.000
-109.255,-134.021,-111.848,-104.696,-104.517,-104.517,-115.514,-107.825,0.108,0.969,0.291,-0.488,-2.777,0.153,100.000,132.000,1.000
-109.255,-133.842,-111.848,-104.338,-104.696,-104.517,-115.514,-107.735,0.109,0.966,0.287,-0.946,-2.869,0.122,100.000,133.000,1.000
-109.255,-133.842,-111.848,-104.517,-104.517,-104.249,-115.514,-107.825,0.112,0.965,0.283,-1.129,-2.838,0.153,100.000,134.000,1.000
-109.255,-133.753,-112.027,-104.517,-104.517,-104.159,-115.246,-107.557,0.112,0.971,0.282,-1.190,-2.563,0.214,100.000,135.000,1.000
-109.345,-133.842,-111.669,-104.249,-104.517,-104.159,-115.424,-107.557,0.111,0.967,0.286,-1.282,-2.441,0.305,100.000,136.000,1.000
-109.345,-133.842,-111.580,-104.338,-104.338,-104.249,-115.335,-107.557,0.111,0.964,0.287,-1.160,-2.258,0.244,100.000,137.000,1.000
-109.345,-133.932,-111.848,-104.517,-104.427,-104.338,-115.156,-107.378,0.113,0.963,0.292,-1.099,-2.197,0.122,100.000,138.000,1.000
-109.434,-133.842,-111.938,-104.517,-104.338,-104.159,-115.424,-107.467,0.114,0.960,0.292,-1.099,-1.923,0.061,100.000,139.000,1.000
-109.524,-133.842,-111.848,-104.249,-104.338,-104.338,-115.514,-107.378,0.114,0.965,0.290,-1.007,-1.526,-0.061,100.000,140.000,1.000
-109.077,-133.753,-111.938,-104.427,-104.338,-104.338,-115.335,-107.378,0.114,0.967,0.288,-0.793,-1.251,-0.122,100.000,141.000,1.000
-109.077,-133.753,-111.938,-104.427,-104.249,-104.249,-115.067,-107.467,0.113,0.966,0.285,-0.763,-0.977,-0.275,100.000,142.000,1.000
-109.166,-133.753,-111.848,-104.249,-104.338,-104.070,-115.246,-107.378,0.111,0.965,0.287,-0.702,-0.763,-0.458,100.000,143.000,1.000
-109.255,-133.932,-111.938,-104.338,-104.517,-103.980,-115.156,-107.378,0.108,0.966,0.286,-0.610,-0.458,-0.610,100.000,144.000,1.000
-109.166,-133.753,-111.759,-104.070,-104.159,-104.249,-115.067,-107.288,0.106,0.968,0.285,-0.519,-0.305,-0.885,100.000,145.000,1.000
-108.987,-133.842,-111.669,-104.249,-104.249,-104.249,-115.156,-107.378,0.106,0.969,0.285,-0.458,-0.305,-1.007,100.000,146.000,1.000
-108.987,-133.663,-111.669,-104.070,-104.338,-103.891,-115.335,-107.378,0.105,0.969,0.286,-0.549,-0.153,-1.068,100.000,147.000,1.000
-109.255,-133.395,-111.759,-103.980,-104.338,-104.070,-115.335,-107.378,0.105,0.970,0.286,-0.549,-0.092,-1.007,100.000,148.000,1.000
-109.166,-133.395,-111.759,-104.159,-104.338,-103.891,-115.246,-107.557,0.105,0.971,0.286,-0.671,-0.092,-0.854,100.000,149.000,1.000
-108.987,-133.574,-111.938,-104.249,-104.249,-104.070,-114.977,-107.288,0.103,0.973,0.289,-0.519,-0.092,-0.824,100.000,150.000,1.000
-108.987,-133.395,-111.938,-104.338,-104.249,-104.070,-115.067,-107.199,0.102,0.977,0.290,-0.641,-0.092,-0.793,100.000,151.000,1.000
-109.077,-133.395,-111.669,-104.249,-104.070,-104.070,-115.246,-107.378,0.103,0.977,0.286,-0.763,-0.061,-0.763,100.000,152.000,1.000
-108.898,-133.485,-111.848,-104.159,-104.249,-104.070,-115.067,-107.467,0.104,0.979,0.288,-0.641,0.000,-0.549,100.000,153.000,1.000
-108.898,-133.485,-111.848,-104.249,-104.249,-104.070,-115.067,-107.378,0.103,0.980,0.290,-0.732,0.183,-0.458,100.000,154.000,1.000
-109.166,-133.395,-111.848,-104.070,-104.249,-103.891,-115.335,-107.378,0.104,0.979,0.293,-0.641,0.244,-0.427,100.000,155.000,1.000
-109.077,-133.574,-111.848,-104.249,-103.980,-103.980,-115.156,-107.378,0.106,0.977,0.289,-0.671,0.244,-0.458,100.000,156.000,1.000
-109.077,-133.395,-111.848,-104.249,-104.070,-104.070,-115.156,-107.467,0.109,0.976,0.291,-0.641,0.122,-0.366,100.000,157.000,1.000
-108.987,-133.306,-111.669,-104.249,-104.427,-104.070,-114.977,-107.467,0.112,0.977,0.298,-0.580,0.061,-0.275,100.000,158.000,1.000
-109.166,-133.395,-111.669,-104.249,-104.249,-104.070,-115.067,-107.378,0.111,0.976,0.301,-0.610,-0.183,-0.183,100.000,159.000,1.000
-109.255,-133.306,-111.848,-104.070,-104.070,-103.891,-115.246,-107.378,0.107,0.975,0.309,-0.671,-0.366,-0.122,100.000,160.000,1.000
-108.898,-133.395,-111.669,-104.159,-104.159,-103.712,-115.156,-107.288,0.109,0.977,0.311,-0.732,-0.702,-0.031,100.000,161.000,1.000
-108.719,-133.485,-111.491,-104.249,-104.070,-103.802,-115.067,-107.199,0.106,0.977,0.311,-0.854,-1.038,0.122,100.000,162.000,1.000
-108.719,-133.216,-111.580,-104.159,-103.980,-104.070,-114.977,-107.199,0.106,0.974,0.313,-0.946,-1.343,0.122,100.000,163.000,1.000
-108.808,-133.395,-111.491,-104.249,-104.070,-103.980,-114.888,-107.020,0.105,0.973,0.316,-1.007,-1.556,0.183,100.000,164.000,1.000
-108.898,-133.395,-111.759,-104.517,-104.249,-104.070,-114.799,-107.199,0.105,0.973,0.313,-0.885,-1.617,0.305,100.000,165.000,1.000
-108.987,-133.395,-111.759,-104.159,-104.070,-103.891,-114.977,-107.378,0.103,0.973,0.311,-0.671,-1.556,0.458,100.000,166.000,1.000
-108.808,-133.306,-111.669,-104.070,-103.891,-103.802,-115.246,-107.557,0.101,0.974,0.305,-0.305,-1.465,0.702,100.000,167.000,1.000
-108.719,-133.306,-111.491,-104.070,-103.980,-103.802,-115.156,-107.199,0.099,0.975,0.305,0.244,-1.282,0.763,100.000,168.000,1.000
-108.808,-133.216,-111.491,-103.802,-104.070,-103.802,-114.977,-107.020,0.098,0.977,0.299,0.549,-1.007,0.793,100.000,169.000,1.000
-108.808,-133.306,-111.669,-103.980,-103.980,-103.623,-114.977,-107.020,0.098,0.979,0.297,0.671,-0.824,0.702,100.000,170.000,1.000
-108.987,-133.395,-111.491,-103.980,-104.070,-103.623,-114.977,-107.020,0.097,0.978,0.293,0.946,-0.641,0.610,100.000,171.000,1.000
-108.987,-133.395,-111.491,-104.070,-103.891,-103.802,-115.067,-107.199,0.097,0.978,0.295,1.099,-0.549,0.549,100.000,172.000,1.000
-109.077,-133.395,-111.491,-104.249,-104.070,-103.891,-115.067,-107.020,0.100,0.977,0.293,1.038,-0.519,0.427,100.000,173.000,1.000
-109.166,-133.395,-111.491,-104.159,-104.070,-103.891,-114.977,-107.110,0.102,0.976,0.292,1.068,-0.488,0.244,100.000,174.000,1.000
-108.898,-133.127,-111.491,-104.159,-104.070,-103.712,-114.799,-107.288,0.104,0.975,0.292,1.099,-0.549,0.122,100.000,175.000,1.000
-108.987,-133.395,-111.491,-104.070,-104.070,-103.533,-114.977,-107.288,0.105,0.977,0.291,1.038,-0.488,0.000,100.000,176.000,1.000
-108.808,-133.574,-111.669,-104.159,-103.980,-103.623,-115.067,-107.199,0.106,0.973,0.291,0.977,-0.427,-0.092,100.000,177.000,1.000
-108.898,-133.395,-111.669,-104.159,-103.891,-103.802,-115.156,-107.288,0.106,0.971,0.286,0.885,-0.427,-0.183,100.000,178.000,1.000
-108.808,-133.306,-111.401,-104.249,-104.070,-103.891,-114.977,-107.378,0.107,0.970,0.282,0.916,-0.397,-0.244,100.000,179.000,1.000
-108.719,-133.127,-111.401,-104.159,-104.159,-103.891,-114.977,-107.378,0.108,0.969,0.280,0.885,-0.397,-0.397,100.000,180.000,1.000
-108.719,-133.216,-111.401,-104.159,-103.891,-103.891,-115.067,-107.288,0.107,0.968,0.281,0.824,-0.214,-0.488,100.000,181.000,1.000
-108.808,-133.306,-111.491,-104.249,-103.980,-103.802,-115.067,-107.288,0.108,0.967,0.280,0.763,-0.092,-0.458,100.000,182.000,1.000
-108.719,-133.127,-111.580,-104.070,-104.070,-103.891,-115.246,-107.199,0.109,0.966,0.279,0.793,0.122,-0.305,100.000,183.000,1.000
-108.719,-133.127,-111.669,-104.338,-103.980,-103.891,-115.067,-107.378,0.107,0.964,0.280,0.702,0.244,-0.275,100.000,184.000,1.000
-108.898,-133.127,-111.580,-104.338,-103.802,-103.891,-114.888,-107.199,0.108,0.964,0.281,0.641,0.397,-0.183,100.000,185.000,1.000
-108.898,-133.306,-111.491,-104.070,-103.891,-103.802,-115.067,-107.288,0.109,0.964,0.280,0.671,0.641,-0.092,100.000,186.000,1.000
-108.719,-133.216,-111.401,-103.980,-103.891,-103.623,-115.067,-107.288,0.110,0.964,0.280,0.671,0.854,-0.031,100.000,187.000,1.000
-108.987,-133.038,-111.222,-104.070,-104.070,-103.802,-114.977,-107.199,0.109,0.966,0.280,0.610,0.946,0.153,100.000,188.000,1.000
-109.077,-133.038,-111.222,-104.159,-104.249,-103.891,-114.977,-107.110,0.111,0.963,0.281,0.519,0.977,0.153,100.000,189.000,1.000
-108.808,-133.306,-111.491,-104.249,-104.338,-103.623,-115.067,-107.020,0.109,0.964,0.284,0.336,1.099,0.366,100.000,190.000,1.000
-108.719,-133.306,-111.669,-104.249,-104.070,-103.712,-115.067,-107.199,0.107,0.966,0.287,0.122,0.977,0.397,100.000,191.000,1.000
-108.719,-133.216,-111.669,-104.159,-103.891,-103.891,-115.156,-107.110,0.102,0.965,0.290,-0.122,0.702,0.427,100.000,192.000,1.000
-108.719,-132.948,-111.580,-103.802,-103.980,-103.802,-114.888,-107.110,0.102,0.964,0.292,-0.305,0.519,0.641,100.000,193.000,1.000
-108.719,-133.038,-111.491,-104.070,-103.980,-103.891,-114.977,-107.199,0.099,0.964,0.293,-0.397,0.244,0.641,100.000,194.000,1.000
-108.719,-133.127,-111.401,-104.338,-104.070,-103.891,-114.977,-107.288,0.099,0.965,0.296,-0.427,0.122,0.671,100.000,195.000,1.000
-108.808,-133.127,-111.222,-104.159,-103.891,-103.802,-114.888,-107.110,0.101,0.962,0.296,-0.336,-0.061,0.732,100.000,196.000,1.000
-108.719,-133.395,-111.222,-104.070,-104.159,-103.802,-114.620,-107.110,0.103,0.962,0.296,-0.305,-0.244,0.732,100.000,197.000,1.000
-108.719,-133.127,-111.491,-103.980,-104.070,-103.623,-114.888,-107.110,0.103,0.961,0.295,-0.244,-0.366,0.671,100.000,198.000,1.000
-108.629,-132.948,-111.222,-103.802,-104.070,-103.533,-114.799,-107.110,0.105,0.961,0.292,-0.092,-0.610,0.488,100.000,199.000,1.000
-108.987,-132.948,-111.580,-103.891,-104.070,-103.712,-114.888,-106.931,0.101,0.964,0.294,0.000,-0.854,0.336,100.000,200.000,1.000
-108.898,-133.306,-111.580,-103.623,-103.891,-103.802,-114.709,-106.931,0.099,0.969,0.294,-0.031,-0.946,0.122,100.000,201.000,1.000
-108.451,-133.306,-111.401,-103.444,-103.891,-103.802,-114.888,-106.931,0.098,0.969,0.287,-0.092,-1.129,-0.153,100.000,202.000,1.000
-108.540,-133.306,-111.759,-103.444,-104.070,-103.623,-114.799,-107.110,0.098,0.971,0.290,-0.244,-1.312,-0.275,100.000,203.000,1.000
-108.629,-133.306,-111.580,-103.354,-104.070,-103.533,-114.977,-107.110,0.101,0.970,0.290,-0.549,-1.465,-0.488,100.000,204.000,1.000
-108.719,-133.216,-111.401,-103.265,-104.070,-103.802,-114.888,-107.288,0.101,0.971,0.290,-0.885,-1.648,-0.549,100.000,205.000,1.000
-108.719,-133.216,-111.222,-103.176,-103.980,-103.802,-114.620,-107.199,0.107,0.971,0.289,-1.099,-1.678,-0.519,100.000,206.000,1.000
-108.808,-133.306,-111.222,-103.086,-104.249,-103.712,-114.620,-107.378,0.112,0.971,0.290,-1.190,-1.495,-0.458,100.000,207.000,1.000
-108.719,-132.948,-111.312,-102.818,-104.070,-103.802,-114.441,-107.199,0.111,0.971,0.285,-1.251,-1.404,-0.427,100.000,208.000,1.000
-108.719,-132.948,-111.401,-102.907,-103.980,-103.802,-114.620,-106.931,0.112,0.972,0.282,-1.251,-1.129,-0.397,100.000,209.000,1.000
-108.361,-133.038,-111.222,-102.729,-104.070,-103.623,-114.799,-106.931,0.111,0.971,0.286,-1.160,-0.824,-0.214,100.000,210.000,1.000
-108.540,-133.306,-111.312,-102.460,-104.070,-103.802,-114.799,-107.110,0.109,0.969,0.289,-1.190,-0.458,-0.183,100.000,211.000,1.000
-108.808,-133.306,-111.491,-102.371,-103.891,-103.802,-114.620,-107.110,0.112,0.966,0.292,-1.221,-0.214,-0.122,100.000,212.000,1.000
-108.898,-133.127,-111.401,-102.103,-103.980,-103.802,-114.799,-107.110,0.112,0.965,0.296,-1.007,0.092,-0.092,100.000,213.000,1.000
-108.808,-133.127,-111.222,-102.013,-103.802,-103.891,-114.620,-107.199,0.112,0.967,0.294,-0.763,0.458,0.031,100.000,214.000,1.000
-108.629,-133.216,-111.401,-102.013,-103.802,-103.802,-114.799,-107.288,0.113,0.968,0.297,-0.458,0.641,0.214,100.000,215.000,1.000
-108.719,-133.306,-111.491,-101.835,-103.712,-103.802,-114.799,-107.199,0.114,0.967,0.299,-0.092,0.916,0.275,100.000,216.000,1.000
-108.719,-133.127,-111.491,-101.656,-103.980,-103.802,-114.799,-107.288,0.113,0.968,0.303,0.244,1.099,0.305,100.000,217.000,1.000
-108.629,-133.306,-111.580,-101.656,-104.070,-103.533,-114.799,-107.020,0.111,0.966,0.306,0.458,1.190,0.275,100.000,218.000,1.000
-108.540,-133.127,-111.580,-101.209,-104.070,-103.802,-114.709,-107.110,0.108,0.967,0.311,0.549,1.251,0.153,100.000,219.000,1.000
-108.540,-133.038,-111.401,-101.119,-103.891,-103.712,-114.620,-107.288,0.105,0.969,0.307,0.702,1.099,-0.092,100.000,220.000,1.000
-108.629,-133.127,-111.222,-101.119,-103.891,-103.533,-114.530,-107.288,0.104,0.970,0.309,0.763,0.671,-0.214,100.000,221.000,1.000
-108.540,-132.948,-111.401,-100.762,-103.891,-103.623,-114.620,-107.199,0.102,0.970,0.308,0.793,0.275,-0.305,100.000,222.000,1.000
-108.540,-132.948,-111.401,-100.672,-103.802,-103.802,-114.530,-107.020,0.100,0.971,0.307,0.671,-0.183,-0.336,100.000,223.000,1.000
-108.719,-133.038,-111.312,-100.315,-103.802,-103.712,-114.352,-107.020,0.101,0.972,0.306,0.427,-0.671,-0.427,100.000,224.000,1.000
-108.719,-133.127,-111.312,-100.315,-103.891,-103.712,-114.709,-107.199,0.099,0.972,0.303,0.275,-1.038,-0.458,100.000,225.000,1.000
-108.987,-133.216,-111.222,-100.315,-103.891,-103.802,-114.709,-107.199,0.100,0.974,0.296,-0.153,-1.343,-0.549,100.000,226.000,1.000
-108.808,-133.127,-111.401,-99.868,-103.891,-103.891,-114.709,-107.110,0.099,0.973,0.293,-0.366,-1.556,-0.580,100.000,227.000,1.000
-108.540,-133.127,-111.401,-99.599,-104.070,-103.802,-114.620,-107.378,0.099,0.972,0.291,-0.488,-1.770,-0.488,100.000,228.000,1.000
-108.540,-133.127,-111.401,-99.778,-103.891,-103.712,-114.530,-107.020,0.100,0.973,0.287,-0.549,-1.923,-0.458,100.000,229.000,1.000
-108.719,-133.306,-111.222,-99.331,-104.159,-103.623,-114.441,-107.020,0.103,0.970,0.284,-0.580,-2.014,-0.427,100.000,230.000,1.000
-108.808,-133.127,-111.222,-99.152,-103.891,-103.623,-114.262,-107.110,0.103,0.970,0.286,-0.458,-1.923,-0.397,100.000,231.000,1.000
-108.987,-132.948,-111.491,-98.884,-103.802,-103.623,-114.441,-107.020,0.100,0.971,0.292,-0.580,-1.984,-0.275,100.000,232.000,1.000
-108.808,-133.216,-111.491,-98.437,-103.802,-103.802,-114.530,-107.020,0.098,0.973,0.296,-0.702,-1.801,-0.275,100.000,233.000,1.000
-108.719,-133.127,-111.491,-98.526,-103.891,-103.802,-114.173,-107.199,0.097,0.973,0.296,-0.854,-1.801,-0.275,100.000,234.000,1.000
-108.540,-132.948,-111.491,-98.348,-103.980,-103.802,-114.083,-107.020,0.096,0.974,0.302,-1.068,-1.862,-0.092,100.000,235.000,1.000
-108.808,-133.038,-111.401,-97.990,-103.802,-103.623,-114.083,-107.020,0.097,0.972,0.304,-1.129,-2.075,-0.031,100.000,236.000,1.000
-108.808,-133.127,-111.580,-98.079,-103.802,-103.802,-113.815,-107.020,0.097,0.971,0.301,-1.129,-2.167,-0.092,100.000,237.000,1.000
-108.540,-133.127,-111.491,-97.632,-103.802,-103.891,-113.904,-107.110,0.101,0.973,0.300,-1.099,-2.167,-0.153,100.000,238.000,1.000
-108.719,-133.216,-111.580,-97.543,-103.891,-104.070,-113.994,-107.199,0.102,0.973,0.296,-1.068,-2.075,-0.244,100.000,239.000,1.000
-108.987,-133.127,-111.401,-97.185,-104.070,-103.802,-113.994,-107.020,0.101,0.976,0.293,-0.946,-1.770,-0.488,100.000,240.000,1.000
-108.808,-133.306,-111.222,-97.185,-103.891,-103.712,-113.994,-106.931,0.102,0.978,0.292,-0.763,-1.587,-0.549,100.000,241.000,1.000
-108.987,-133.216,-111.222,-96.738,-103.802,-103.712,-113.726,-107.110,0.104,0.977,0.293,-0.641,-1.373,-0.641,100.000,242.000,1.000
-108.808,-133.127,-111.312,-96.917,-103.891,-103.891,-113.904,-107.020,0.108,0.979,0.294,-0.275,-1.099,-0.854,100.000,243.000,1.000
-108.808,-133.127,-111.222,-96.560,-103.712,-103.802,-113.726,-107.020,0.112,0.977,0.295,-0.183,-1.007,-0.916,100.000,244.000,1.000
-108.719,-133.216,-111.401,-96.381,-103.891,-103.802,-113.636,-107.110,0.118,0.975,0.297,-0.061,-0.824,-1.038,100.000,245.000,1.000
-108.808,-132.948,-111.491,-96.113,-104.159,-103.623,-113.636,-101.835,0.122,0.976,0.299,0.092,-0.488,-1.038,100.000,246.000,1.000
-108.808,-133.216,-108.361,-96.113,-103.891,-99.778,-108.898,-30.220,0.123,0.977,0.302,0.000,-0.092,-1.099,100.000,247.000,1.000
-99.689,-128.835,-52.840,-96.202,-99.152,-40.144,-47.028,131.249,0.121,0.976,0.300,-0.061,0.183,-1.007,100.000,248.000,1.000
-32.544,-78.231,84.132,-78.857,-39.071,89.407,107.020,307.918,0.119,0.975,0.301,-0.122,0.549,-0.793,100.000,249.000,1.000
87.529,37.730,240.147,-1.878,97.543,242.561,282.168,476.807,0.115,0.974,0.297,-0.061,0.854,-0.610,100.000,250.000,1.000
220.925,170.141,371.128,125.170,240.415,377.029,421.554,615.835,0.112,0.974,0.295,-0.061,1.007,-0.519,100.000,251.000,1.000
362.635,309.616,514.001,269.562,385.255,518.382,565.410,760.585,0.109,0.976,0.293,0.000,1.038,-0.366,100.000,252.000,1.000
532.329,476.897,686.556,441.223,557.989,687.450,737.250,933.945,0.107,0.974,0.292,0.122,1.099,-0.244,100.000,253.000,1.000
704.974,646.681,861.615,615.031,732.958,859.112,911.772,1110.167,0.104,0.970,0.291,0.427,1.068,-0.061,100.000,254.000,1.000
843.287,783.473,1002.699,753.880,872.612,997.156,1052.320,1252.681,0.102,0.969,0.290,0.671,1.190,0.122,100.000,255.000,1.000
977.218,916.064,1139.313,888.884,1007.527,1131.624,1190.007,1391.530,0.098,0.970,0.291,0.885,1.099,0.061,100.000,256.000,1.000
1141.012,1078.516,1307.041,1053.482,1172.036,1298.011,1360.595,1563.192,0.095,0.972,0.288,0.977,0.763,-0.061,100.000,257.000,1.000
1312.316,1249.999,1483.888,1225.859,1344.323,1474.858,1541.645,1744.420,0.088,0.974,0.291,0.946,0.336,-0.214,100.000,258.000,1.000
1455.188,1393.676,1631.946,1370.162,1487.553,1623.541,1693.458,1896.054,0.083,0.972,0.293,0.641,-0.092,-0.305,100.000,259.000,1.000
1580.179,1520.276,1761.318,1496.226,1612.365,1753.718,1826.048,2028.108,0.083,0.971,0.290,0.427,-0.641,-0.427,100.000,260.000,1.000
1730.562,1673.073,1917.154,1648.307,1763.463,1910.985,1985.461,2186.269,0.082,0.972,0.295,0.183,-1.190,-0.671,100.000,261.000,1.000
1902.938,1848.579,2094.627,1823.098,1936.376,2090.335,2166.868,2365.887,0.083,0.972,0.291,0.122,-1.526,-0.793,100.000,262.000,1.000
2048.582,1996.637,2244.115,1970.798,2082.557,2240.807,2318.591,2516.717,0.087,0.973,0.292,0.031,-1.892,-0.946,100.000,263.000,1.000
2164.543,2114.654,2362.490,2088.458,2199.233,2360.434,2438.486,2636.075,0.094,0.969,0.288,-0.244,-2.167,-1.068,100.000,264.000,1.000
2309.114,2261.281,2509.296,2234.906,2344.341,2507.955,2586.455,2783.508,0.100,0.966,0.285,-0.244,-2.380,-1.099,100.000,265.000,1.000
2477.825,2431.781,2679.885,2406.031,2514.214,2680.153,2757.758,2954.275,0.104,0.964,0.282,-0.092,-2.380,-1.129,100.000,266.000,1.000
2628.476,2583.504,2832.056,2558.649,2666.027,2833.128,2909.840,3106.088,0.106,0.962,0.287,0.122,-2.258,-1.068,100.000,267.000,1.000
2745.778,2701.253,2950.073,2677.292,2784.044,2951.414,3027.678,3224.016,0.104,0.961,0.285,0.427,-2.136,-0.916,100.000,268.000,1.000
2883.733,2840.102,3088.475,2817.035,2923.698,3090.442,3166.080,3362.597,0.102,0.963,0.281,0.488,-2.289,-0.641,100.000,269.000,1.000
3045.917,3002.733,3251.196,2981.455,3087.402,3253.609,3328.175,3525.138,0.102,0.963,0.280,0.397,-2.472,-0.488,100.000,270.000,1.000
3197.551,3154.189,3402.919,3135.056,3240.556,3405.780,3479.362,3676.952,0.101,0.966,0.283,0.275,-2.777,-0.183,100.000,271.000,1.000
3307.164,3263.176,3512.264,3245.473,3350.884,3515.393,3588.707,3786.296,0.104,0.968,0.284,0.031,-2.808,0.214,100.000,272.000,1.000
3423.840,3380.478,3629.566,3363.580,3468.902,3632.516,3705.383,3903.419,0.104,0.969,0.285,-0.305,-2.899,0.458,100.000,273.000,1.000
3579.766,3536.314,3785.670,3521.115,3626.347,3788.889,3861.130,4059.882,0.107,0.970,0.284,-0.732,-2.655,0.916,100.000,274.000,1.000
3746.957,3703.148,3952.951,3689.469,3794.790,3956.348,4027.695,4227.430,0.106,0.973,0.286,-1.221,-2.106,1.373,100.000,275.000,1.000
3872.485,3828.318,4078.389,3815.711,3921.211,4081.697,4152.775,4352.600,0.106,0.973,0.284,-1.556,-1.495,1.678,100.000,276.000,1.000
3989.876,3945.351,4196.138,3934.444,4039.944,4199.535,4270.346,4470.528,0.107,0.971,0.288,-1.831,-0.824,1.801,100.000,277.000,1.000
4135.609,4090.816,4342.050,4081.250,4186.839,4345.537,4416.079,4616.977,0.107,0.973,0.289,-1.831,-0.214,1.801,100.000,278.000,1.000
4282.058,4236.639,4488.678,4228.503,4334.093,4491.985,4562.528,4763.872,0.107,0.972,0.287,-1.770,0.397,1.831,100.000,279.000,1.000
4391.313,4345.537,4598.380,4338.384,4444.063,4601.420,4672.230,4873.396,0.106,0.973,0.292,-1.495,1.099,1.801,100.000,280.000,1.000
4491.181,4445.583,4698.605,4439.325,4544.825,4701.824,4772.634,4973.979,0.105,0.975,0.298,-1.221,1.587,1.678,100.000,281.000,1.000
4621.983,4576.118,4829.676,4570.753,4676.700,4832.984,4903.794,5105.496,0.102,0.975,0.302,-0.946,1.953,1.434,100.000,282.000,1.000
4764.319,4718.096,4972.548,4713.625,4820.199,4975.499,5046.667,5248.637,0.102,0.976,0.302,-0.824,2.106,1.343,100.000,283.000,1.000
4876.793,4829.854,5085.291,4826.100,4933.120,5087.615,5159.230,5361.826,0.099,0.975,0.304,-0.732,2.167,0.885,100.000,284.000,1.000
4969.061,4921.765,5177.558,4918.546,5025.388,5179.704,5251.409,5453.736,0.099,0.974,0.306,-0.854,1.953,0.427,100.000,285.000,1.000
5103.261,5055.875,5312.205,5053.372,5160.213,5314.440,5386.145,5588.652,0.098,0.976,0.307,-0.824,1.526,0.031,100.000,286.000,1.000
5239.786,5192.311,5449.266,5190.344,5298.079,5451.680,5523.832,5726.249,0.102,0.974,0.303,-0.793,1.007,-0.122,100.000,287.000,1.000
5349.220,5301.387,5559.237,5300.583,5407.960,5561.204,5633.802,5836.577,0.105,0.972,0.302,-0.610,0.488,-0.336,100.000,288.000,1.000
5426.378,5377.919,5636.395,5377.741,5484.939,5637.915,5711.139,5913.646,0.106,0.970,0.305,-0.366,0.031,-0.397,100.000,289.000,1.000
5527.497,5479.217,5737.783,5479.396,5586.506,5739.392,5812.974,6015.123,0.107,0.971,0.308,0.031,-0.305,-0.427,100.000,290.000,1.000
5653.114,5605.639,5864.293,5605.729,5713.375,5865.903,5939.664,6142.081,0.104,0.970,0.309,0.305,-0.793,-0.427,100.000,291.000,1.000
5769.075,5721.510,5980.701,5722.136,5829.425,5982.132,6056.161,6258.757,0.103,0.970,0.307,0.580,-1.129,-0.366,100.000,292.000,1.000
5853.386,5805.463,6064.923,5806.357,5914.093,6066.353,6140.829,6343.783,0.103,0.976,0.305,0.763,-1.373,-0.244,100.000,293.000,1.000
5955.220,5906.762,6166.936,5908.282,6016.017,6168.456,6243.111,6445.707,0.103,0.982,0.305,0.793,-1.617,0.061,100.000,294.000,1.000
6088.884,6040.425,6301.583,6042.392,6150.217,6302.745,6377.489,6580.265,0.102,0.982,0.302,0.519,-1.923,0.153,100.000,295.000,1.000
6215.573,6167.115,6428.630,6169.529,6277.890,6429.971,6505.163,6707.759,0.105,0.978,0.303,0.336,-2.136,0.153,100.000,296.000,1.000
6301.851,6253.661,6515.355,6256.075,6364.525,6516.338,6592.066,6794.573,0.111,0.975,0.301,0.061,-2.075,0.031,100.000,297.000,1.000
6394.924,6346.823,6608.696,6349.594,6457.956,6609.769,6685.407,6888.093,0.114,0.973,0.295,-0.031,-1.801,0.122,100.000,298.000,1.000
6516.607,6468.506,6730.826,6471.635,6580.175,6731.720,6807.895,7010.580,0.111,0.972,0.294,-0.061,-1.465,0.000,100.000,299.000,1.000
6639.542,6591.440,6854.029,6594.749,6703.199,6855.102,6931.187,7133.962,0.106,0.973,0.295,0.031,-1.129,-0.092,100.000,300.000,1.000
6728.680,6680.668,6943.614,6684.245,6792.785,6944.688,7020.772,7223.548,0.106,0.973,0.291,0.183,-0.458,-0.275,100.000,301.000,1.000
6814.689,6766.768,7030.071,6770.612,6878.973,7031.233,7107.587,7310.004,0.103,0.972,0.288,0.488,-0.031,-0.458,100.000,302.000,1.000
6930.650,6882.013,7145.942,6886.662,6995.381,7147.015,7223.727,7426.233,0.103,0.970,0.284,0.824,0.427,-0.641,100.000,303.000,1.000
7057.787,7009.597,7273.705,7014.604,7123.412,7274.331,7351.757,7554.354,0.102,0.969,0.283,0.916,0.824,-0.824,100.000,304.000,1.000
7154.883,7106.872,7371.248,7111.789,7220.597,7371.785,7449.479,7652.075,0.102,0.965,0.280,1.007,1.068,-1.007,100.000,305.000,1.000
7241.250,7193.060,7457.794,7198.067,7307.143,7458.420,7536.115,7738.711,0.103,0.963,0.282,1.190,1.312,-1.129,100.000,306.000,1.000
7360.966,7312.955,7577.868,7318.319,7427.396,7578.851,7656.188,7859.053,0.100,0.962,0.287,1.129,1.282,-1.221,100.000,307.000,1.000
7492.037,7444.293,7709.922,7449.837,7558.824,7710.458,7788.510,7990.928,0.100,0.963,0.289,0.885,0.854,-1.251,100.000,308.000,1.000
7601.918,7553.817,7819.445,7559.628,7668.884,7820.071,7898.570,8101.167,0.102,0.965,0.290,0.549,0.641,-1.190,100.000,309.000,1.000
7695.885,7647.963,7913.591,7654.042,7763.298,7914.306,7992.984,8195.670,0.106,0.963,0.292,0.122,0.336,-0.977,100.000,310.000,1.000
7814.975,7767.410,8033.485,7773.758,7883.282,8034.201,8112.879,8315.654,0.108,0.962,0.289,-0.336,0.000,-0.732,100.000,311.000,1.000
7951.231,7904.114,8169.831,7910.372,8020.075,8171.262,8249.851,8452.268,0.111,0.958,0.288,-0.610,-0.183,-0.488,100.000,312.000,1.000
8070.858,8023.562,8289.904,8030.178,8139.791,8290.799,8369.835,8572.521,0.112,0.958,0.286,-0.671,-0.336,-0.122,100.000,313.000,1.000
8158.477,8111.091,8377.881,8117.975,8227.499,8378.597,8457.990,8660.676,0.113,0.959,0.285,-0.458,-0.519,0.214,100.000,314.000,1.000
8268.090,8220.525,8487.584,8228.035,8337.201,8488.209,8567.961,8770.646,0.114,0.959,0.285,-0.214,-0.641,0.580,100.000,315.000,1.000
8404.436,8357.229,8624.376,8364.828,8473.815,8625.092,8705.021,8907.617,0.113,0.963,0.291,-0.122,-0.641,0.824,100.000,316.000,1.000
8534.611,8487.494,8755.089,8495.541,8604.350,8755.715,8835.734,9038.331,0.112,0.966,0.293,-0.122,-0.732,1.007,100.000,317.000,1.000
8630.813,8583.696,8851.560,8592.101,8700.908,8852.007,8932.025,9134.711,0.108,0.968,0.291,-0.244,-0.549,0.977,100.000,318.000,1.000
8743.824,8696.707,8964.749,8705.110,8814.009,8965.195,9045.394,9248.079,0.104,0.969,0.289,-0.366,-0.549,1.251,100.000,319.000,1.000
8883.835,8836.808,9105.476,8845.391,8954.646,9105.743,9186.031,9388.538,0.099,0.972,0.285,-0.519,-0.885,1.373,100.000,320.000,1.000
9023.668,8976.818,9245.665,8985.670,9094.836,9246.112,9326.758,9529.265,0.097,0.973,0.290,-0.885,-1.343,1.404,100.000,321.000,1.000
9133.013,9085.806,9354.831,9094.836,9204.091,9355.636,9436.460,9639.056,0.095,0.977,0.288,-1.251,-1.678,1.312,100.000,322.000,1.000
9248.169,9200.693,9470.166,9210.528,9319.605,9470.792,9551.616,9754.838,0.099,0.979,0.290,-1.801,-1.953,1.160,100.000,323.000,1.000
9392.114,9344.639,9614.648,9354.831,9463.997,9615.006,9696.009,9899.141,0.100,0.979,0.289,-2.106,-1.953,1.007,100.000,324.000,1.000
9544.731,9497.524,9767.713,9507.718,9616.704,9768.160,9849.252,10051.938,0.102,0.976,0.290,-2.289,-1.892,0.793,100.000,325.000,1.000
9665.252,9618.046,9888.323,9628.685,9737.762,9888.859,9970.309,10173.174,0.105,0.970,0.290,-2.228,-1.648,0.458,100.000,326.000,1.000
9775.849,9728.642,9999.277,9739.639,9848.895,9999.992,10081.263,10284.307,0.108,0.969,0.292,-1.953,-1.373,0.305,100.000,327.000,1.000
9921.225,9874.375,10144.652,9885.104,9994.717,10145.636,10227.086,10430.040,0.107,0.970,0.294,-1.373,-1.251,0.122,100.000,328.000,1.000
10084.214,10037.543,10307.910,10048.361,10157.796,10308.715,10390.254,10593.476,0.106,0.970,0.302,-0.946,-1.038,-0.122,100.000,329.000,1.000
10233.612,10187.300,10458.024,10198.028,10307.373,10459.008,10540.368,10743.680,0.104,0.972,0.302,-0.580,-0.763,-0.366,100.000,330.000,1.000
10354.491,10307.910,10579.081,10319.265,10428.520,10580.243,10661.246,10865.094,0.102,0.973,0.302,-0.458,-0.641,-0.610,100.000,331.000,1.000
10497.006,10450.246,10721.774,10462.048,10571.750,10722.937,10804.297,11008.234,0.101,0.975,0.303,-0.336,-0.458,-0.732,100.000,332.000,1.000
10660.799,10614.308,10886.104,10626.467,10735.901,10886.999,10968.717,11172.654,0.102,0.976,0.301,-0.183,-0.305,-0.854,100.000,333.000,1.000
10812.344,10765.763,11038.007,10778.280,10887.804,11038.990,11120.798,11324.557,0.099,0.976,0.296,0.061,-0.061,-0.671,100.000,334.000,1.000
10941.716,10895.046,11167.379,10907.741,11017.354,11168.541,11250.438,11454.286,0.098,0.977,0.296,0.336,0.183,-0.763,100.000,335.000,1.000
11094.780,11048.110,11320.802,11060.896,11170.598,11321.606,11403.593,11607.619,0.095,0.978,0.296,0.427,0.305,-0.824,100.000,336.000,1.000
11269.840,11223.259,11495.860,11236.312,11346.104,11497.022,11579.188,11783.304,0.096,0.979,0.295,0.427,0.275,-0.885,100.000,337.000,1.000
11428.984,11382.313,11655.184,11395.546,11505.158,11656.257,11738.601,11942.717,0.096,0.981,0.292,0.214,0.122,-0.854,100.000,338.000,1.000
11553.081,11506.857,11779.728,11519.911,11629.702,11780.979,11862.966,12067.350,0.101,0.980,0.290,0.153,0.122,-0.824,100.000,339.000,1.000
11693.896,11647.853,11920.454,11660.995,11770.519,11921.974,12003.871,12208.076,0.105,0.977,0.291,0.183,0.122,-0.732,100.000,340.000,1.000
11861.445,11815.490,12088.629,11828.812,11938.604,12089.970,12172.225,12376.161,0.105,0.974,0.291,0.488,0.122,-0.793,100.000,341.000,1.000
12024.882,11978.837,12252.422,11992.427,12102.486,12253.764,12336.196,12540.045,0.104,0.972,0.293,0.549,0.000,-0.671,100.000,342.000,1.000
12154.969,12108.745,12382.510,12122.514,12232.574,12383.851,12466.463,12670.668,0.102,0.973,0.295,0.397,-0.275,-0.702,100.000,343.000,1.000
12292.566,12246.700,12520.375,12260.380,12370.618,12521.806,12604.060,12808.713,0.103,0.975,0.297,0.244,-0.580,-0.732,100.000,344.000,1.000
12459.847,12414.070,12688.103,12427.839,12538.524,12689.622,12771.966,12976.440,0.104,0.973,0.297,-0.061,-0.854,-0.641,100.000,345.000,1.000
12631.687,12585.642,12860.479,12600.036,12710.633,12861.552,12944.254,13148.638,0.101,0.972,0.302,-0.275,-1.038,-0.549,100.000,346.000,1.000
12769.999,12723.865,12998.702,12738.617,12848.856,13000.043,13082.745,13287.219,0.102,0.972,0.300,-0.580,-1.434,-0.519,100.000,347.000,1.000
12905.987,12860.301,13135.048,12874.874,12985.291,13136.479,13219.358,13423.653,0.107,0.971,0.302,-0.702,-1.831,-0.305,100.000,348.000,1.000
13075.593,13029.905,13305.011,13044.747,13154.896,13306.173,13389.500,13593.527,0.108,0.970,0.302,-0.671,-2.014,-0.214,100.000,349.000,1.000
13254.854,13209.435,13484.450,13224.455,13334.693,13485.792,13568.851,13773.414,0.111,0.970,0.301,-0.488,-1.984,-0.092,100.000,350.000,1.000
13408.097,13362.589,13637.783,13377.788,13488.116,13639.125,13722.094,13927.015,0.112,0.969,0.302,-0.275,-1.892,0.061,100.000,351.000,1.000
13551.685,13506.266,13781.460,13521.286,13631.793,13782.712,13866.039,14070.960,0.110,0.968,0.302,0.061,-1.648,0.122,100.000,352.000,1.000
13722.362,13676.765,13952.406,13691.964,13803.008,13953.569,14036.985,14241.906,0.106,0.969,0.304,0.183,-1.373,0.275,100.000,353.000,1.000
13909.223,13863.625,14139.446,13878.735,13989.957,14140.787,14224.025,14428.767,0.103,0.971,0.305,0.427,-1.099,0.214,100.000,354.000,1.000
14073.911,14028.045,14304.134,14043.244,14154.377,14305.386,14388.623,14593.813,0.100,0.972,0.303,0.519,-0.885,0.153,100.000,355.000,1.000
14214.279,14168.593,14444.949,14183.881,14295.193,14446.022,14529.350,14734.628,0.099,0.971,0.297,0.732,-0.732,0.214,100.000,356.000,1.000
14383.706,14338.197,14614.555,14353.665,14464.977,14616.074,14699.313,14904.502,0.097,0.972,0.295,0.885,-0.610,0.183,100.000,357.000,1.000
14575.037,14529.439,14806.154,14545.086,14656.576,14807.495,14891.091,15096.190,0.095,0.974,0.292,1.007,-0.427,0.275,100.000,358.000,1.000
14746.608,14701.369,14978.263,14716.568,14828.148,14979.514,15062.752,15268.030,0.093,0.972,0.290,0.977,-0.275,0.336,100.000,359.000,1.000
14886.352,14841.291,15118.095,14856.758,14968.159,15119.436,15202.584,15408.042,0.091,0.975,0.289,0.977,-0.214,0.214,100.000,360.000,1.000
15047.284,15002.313,15279.117,15017.780,15129.182,15280.189,15363.606,15569.242,0.090,0.971,0.287,0.702,-0.061,0.061,100.000,361.000,1.000
15231.642,15186.313,15463.027,15201.869,15311.571,15462.848,15548.410,15753.957,0.092,0.972,0.287,0.641,0.031,-0.122,100.000,362.000,1.000
15403.124,15357.795,15629.592,15368.435,15472.146,15622.797,15722.128,15927.943,0.094,0.971,0.288,0.519,0.061,-0.336,100.000,363.000,1.000
15540.096,15494.677,15752.526,15490.386,15606.973,15757.444,15862.140,16067.865,0.092,0.969,0.285,0.458,0.061,-0.397,100.000,364.000,1.000
15678.944,15633.079,15912.923,15650.871,15777.918,15929.284,16013.774,16219.231,0.091,0.968,0.283,0.397,0.031,-0.458,100.000,365.000,1.000
15857.133,15811.088,16088.607,15827.629,15957.716,16108.813,16171.130,16376.588,0.092,0.968,0.285,0.397,0.092,-0.458,100.000,366.000,1.000
16046.229,16000.988,16268.405,16007.604,16125.891,16277.436,16344.669,16549.770,0.097,0.970,0.288,0.275,0.031,-0.610,100.000,367.000,1.000
16167.107,16121.688,16419.861,16158.792,16245.785,16397.867,16503.992,16709.629,0.096,0.970,0.290,0.244,0.000,-0.519,100.000,368.000,1.000
16289.862,16244.891,16558.889,16297.642,16389.908,16541.543,16644.004,16850.176,0.097,0.968,0.293,0.183,-0.031,-0.641,100.000,369.000,1.000
16490.939,16445.609,16732.158,16470.645,16581.061,16732.158,16817.275,17023.357,0.099,0.969,0.293,0.214,-0.061,-0.702,100.000,370.000,1.000
16670.559,16624.961,16903.553,16642.127,16754.242,16905.340,16988.758,17194.840,0.100,0.968,0.294,-0.244,-0.061,-0.702,100.000,371.000,1.000
16803.506,16757.818,17036.053,16774.896,16887.102,17038.199,17121.527,17327.520,0.099,0.970,0.293,-0.427,-0.031,-0.671,100.000,372.000,1.000
16931.984,16886.475,17164.711,16903.730,17015.580,17166.766,17250.004,17456.088,0.103,0.971,0.289,-0.610,0.031,-0.549,100.000,373.000,1.000
17089.072,17043.742,17322.424,17060.998,17173.115,17324.480,17407.539,17613.623,0.106,0.971,0.290,-0.671,0.122,-0.458,100.000,374.000,1.000
17259.840,17214.242,17492.744,17231.408,17343.436,17495.068,17578.129,17784.211,0.105,0.971,0.293,-0.671,0.275,-0.366,100.000,375.000,1.000
17402.980,17357.383,17636.064,17374.369,17486.574,17638.119,17721.000,17927.352,0.108,0.972,0.291,-0.793,0.305,-0.244,100.000,376.000,1.000
17525.467,17480.227,17758.820,17497.215,17609.420,17760.787,17843.936,18050.465,0.110,0.973,0.291,-0.916,0.275,0.092,100.000,377.000,1.000
17676.564,17631.861,17910.365,17648.492,17760.965,17912.332,17995.926,18202.277,0.109,0.972,0.290,-0.977,0.244,0.244,100.000,378.000,1.000
17846.080,17801.199,18079.969,17818.186,17930.391,18081.668,18164.727,18371.705,0.113,0.971,0.292,-0.946,0.092,0.305,100.000,379.000,1.000
17992.350,17947.646,18226.508,17964.365,18077.287,18228.207,18311.533,18518.332,0.115,0.972,0.295,-0.916,-0.153,0.397,100.000,380.000,1.000
18110.457,18065.396,18344.613,18082.293,18195.572,18346.492,18429.641,18636.797,0.115,0.970,0.297,-0.702,-0.244,0.580,100.000,381.000,1.000
18254.850,18209.430,18488.738,18226.508,18339.428,18490.973,18573.674,18780.920,0.115,0.970,0.295,-0.610,-0.336,0.671,100.000,382.000,1.000
18422.576,18377.426,18656.465,18394.504,18507.156,18658.611,18741.670,18948.736,0.106,0.971,0.298,-0.458,-0.488,0.793,100.000,383.000,1.000
18576.805,18531.922,18810.871,18548.730,18661.650,18813.107,18896.256,19102.965,0.101,0.972,0.300,-0.488,-0.580,0.671,100.000,384.000,1.000
18697.682,18652.621,18931.840,18669.787,18782.619,18933.984,19017.223,19223.932,0.100,0.971,0.302,-0.549,-0.641,0.763,100.000,385.000,1.000
18834.297,18789.057,19068.363,18806.223,18919.232,19070.600,19153.479,19360.545,0.098,0.970,0.300,-0.366,-0.549,0.732,100.000,386.000,1.000
18997.463,18952.402,19231.531,18969.211,19082.311,19233.855,19316.469,19523.893,0.097,0.971,0.301,-0.183,-0.488,0.793,100.000,387.000,1.000
19156.072,19111.010,19390.051,19127.908,19241.098,19392.643,19475.344,19682.768,0.098,0.969,0.298,0.153,-0.427,0.824,100.000,388.000,1.000
19276.682,19231.352,19510.928,19248.430,19361.529,19513.164,19596.043,19803.379,0.100,0.966,0.298,0.488,-0.336,0.854,100.000,389.000,1.000
19402.656,19357.596,19637.082,19374.404,19487.504,19639.227,19721.750,19929.354,0.099,0.968,0.297,0.702,-0.214,0.763,100.000,390.000,1.000
19561.443,19516.293,19796.047,19533.369,19646.469,19798.193,19880.895,20088.051,0.098,0.969,0.295,0.885,-0.061,0.671,100.000,391.000,1.000
19717.459,19672.754,19952.152,19689.475,19802.842,19954.297,20036.998,20244.512,0.097,0.970,0.293,0.793,0.153,0.580,100.000,392.000,1.000
19835.922,19791.666,20070.795,19808.027,19921.484,20073.209,20155.820,20363.156,0.097,0.970,0.288,0.885,0.458,0.488,100.000,393.000,1.000
19953.672,19909.057,20188.633,19925.508,20039.055,20191.137,20273.480,20480.814,0.093,0.968,0.291,0.977,0.702,0.458,100.000,394.000,1.000
20097.260,20052.555,20332.131,20068.918,20182.643,20334.725,20416.799,20624.492,0.090,0.967,0.288,1.068,0.610,0.336,100.000,395.000,1.000
20247.373,20202.490,20482.334,20218.584,20333.025,20484.838,20567.004,20774.965,0.088,0.971,0.289,1.038,0.336,0.183,100.000,396.000,1.000
20362.887,20318.006,20597.670,20334.277,20448.629,20600.352,20682.785,20890.299,0.090,0.974,0.290,0.916,0.153,0.275,100.000,397.000,1.000
20460.609,20416.084,20695.750,20432.268,20546.619,20698.074,20780.596,20988.469,0.092,0.973,0.291,0.732,-0.092,0.275,100.000,398.000,1.000
20587.836,20543.758,20822.975,20559.404,20673.844,20825.389,20907.732,21115.516,0.095,0.971,0.292,0.458,-0.336,0.244,100.000,399.000,1.000
20731.781,20687.346,20966.832,20703.350,20817.789,20969.693,21051.678,21259.461,0.097,0.970,0.293,0.275,-0.549,0.122,100.000,400.000,1.000
20848.904,20804.469,21084.133,20820.383,20934.912,21086.904,21169.248,21376.852,0.098,0.970,0.294,0.000,-0.793,0.031,100.000,401.000,1.000
20938.668,20894.412,21174.523,20910.326,21025.482,21176.760,21259.461,21466.885,0.101,0.970,0.291,-0.275,-1.068,-0.031,100.000,402.000,1.000
21055.254,21011.268,21291.021,21027.270,21142.158,21293.613,21375.957,21583.650,0.103,0.968,0.294,-0.549,-1.434,-0.153,100.000,403.000,1.000
21195.535,21151.010,21430.674,21167.193,21281.633,21433.447,21515.432,21723.840,0.107,0.968,0.296,-0.671,-1.373,-0.214,100.000,404.000,1.000
21314.268,21269.832,21549.586,21285.836,21400.723,21552.090,21634.523,21842.395,0.106,0.968,0.297,-0.702,-1.221,-0.183,100.000,405.000,1.000
21401.885,21357.361,21637.205,21373.365,21488.342,21640.156,21722.230,21929.924,0.105,0.965,0.299,-0.641,-1.160,-0.275,100.000,406.000,1.000
21507.207,21462.951,21742.705,21478.508,21594.111,21745.477,21827.553,22035.602,0.108,0.967,0.297,-0.427,-0.916,-0.305,100.000,407.000,1.000
21643.553,21599.027,21879.051,21614.854,21730.277,21882.002,21964.076,22171.859,0.109,0.965,0.296,-0.061,-0.824,-0.366,100.000,408.000,1.000
21768.008,21723.572,22003.596,21739.396,21854.553,22006.367,22088.441,22296.402,0.114,0.967,0.292,0.275,-0.702,-0.549,100.000,409.000,1.000
21855.895,21811.639,22091.393,21827.195,21942.529,22094.074,22176.328,22384.646,0.112,0.969,0.292,0.275,-0.427,-0.549,100.000,410.000,1.000
21955.941,21911.773,22191.797,21927.240,22042.666,22194.389,22276.912,22484.873,0.113,0.972,0.289,0.275,0.092,-0.366,100.000,411.000,1.000
22091.660,22047.762,22327.516,22063.408,22179.012,22330.377,22412.543,22620.592,0.112,0.972,0.289,0.092,0.488,-0.214,100.000,412.000,1.000
22223.715,22179.727,22459.303,22195.104,22310.977,22462.521,22544.508,22752.379,0.111,0.973,0.287,-0.092,0.641,-0.214,100.000,413.000,1.000
22316.340,22271.904,22551.838,22286.836,22403.064,22554.609,22636.865,22844.646,0.109,0.972,0.287,-0.244,0.519,0.000,100.000,414.000,1.000
22409.055,22364.621,22644.375,22379.551,22495.602,22647.146,22729.311,22937.004,0.109,0.972,0.289,-0.397,0.458,0.031,100.000,415.000,1.000
22525.016,22480.760,22760.426,22495.959,22611.652,22763.555,22845.094,23053.500,0.110,0.974,0.290,-0.580,0.366,0.092,100.000,416.000,1.000
22645.805,22601.816,22881.482,22616.838,22732.977,22884.521,22966.418,23174.826,0.115,0.974,0.289,-0.610,0.305,0.153,100.000,417.000,1.000
22732.977,22689.168,22968.742,22703.920,22819.971,22971.873,23053.770,23261.998,0.112,0.971,0.291,-0.702,0.336,0.336,100.000,418.000,1.000
22805.396,22761.498,23041.609,22776.428,22892.479,23044.738,23126.277,23334.238,0.108,0.972,0.291,-0.641,0.366,0.549,100.000,419.000,1.000
22908.215,22864.227,23144.695,22879.336,22995.564,23147.557,23228.918,23437.414,0.107,0.969,0.296,-0.549,0.275,0.549,100.000,420.000,1.000
23020.777,22976.969,23256.902,22991.811,23107.949,23259.764,23341.391,23549.709,0.103,0.970,0.294,-0.336,0.244,0.610,100.000,421.000,1.000
23099.010,23055.021,23334.865,23070.041,23186.002,23337.904,23419.801,23627.672,0.099,0.970,0.293,-0.092,0.214,0.671,100.000,422.000,1.000
23159.447,23115.281,23395.750,23130.213,23246.979,23398.344,23479.883,23688.381,0.098,0.972,0.298,0.092,0.031,0.763,100.000,423.000,1.000
23247.246,23203.436,23483.369,23217.742,23334.508,23486.141,23567.502,23776.355,0.093,0.973,0.297,0.061,-0.183,0.671,100.000,424.000,1.000
23351.852,23308.400,23588.424,23322.527,23439.471,23591.283,23672.912,23881.498,0.094,0.971,0.294,0.092,-0.366,0.519,100.000,425.000,1.000
23431.334,23387.705,23667.637,23402.010,23518.953,23670.768,23752.127,23960.713,0.092,0.974,0.297,0.122,-0.519,0.305,100.000,426.000,1.000
23481.850,23438.398,23718.242,23452.613,23569.559,23721.104,23802.730,24011.049,0.088,0.973,0.294,0.183,-0.702,0.031,100.000,427.000,1.000
23553.018,23509.834,23789.500,23523.961,23641.352,23792.449,23873.898,24082.486,0.092,0.975,0.293,0.183,-0.793,-0.275,100.000,428.000,1.000
23643.051,23599.688,23879.711,23613.994,23731.205,23882.572,23963.844,24172.965,0.089,0.972,0.294,0.122,-0.916,-0.427,100.000,429.000,1.000
23718.420,23674.969,23954.813,23688.916,23806.129,23957.494,24039.123,24247.799,0.091,0.971,0.296,0.000,-1.068,-0.763,100.000,430.000,1.000
23755.346,23712.072,23992.096,23726.199,23843.322,23994.867,24075.869,24284.725,0.096,0.970,0.294,-0.092,-1.099,-1.160,100.000,431.000,1.000
23806.754,23762.855,24043.414,23777.430,23894.643,24046.365,24127.279,24336.133,0.100,0.972,0.294,-0.031,-1.221,-1.343,100.000,432.000,1.000
23883.377,23839.746,24120.037,23853.961,23971.531,24122.809,24204.348,24412.756,0.105,0.972,0.293,0.000,-1.251,-1.465,100.000,433.000,1.000
23953.918,23910.467,24190.848,23924.771,24042.342,24193.619,24274.801,24483.654,0.108,0.972,0.290,0.153,-0.946,-1.465,100.000,434.000,1.000
23995.582,23951.861,24232.242,23966.168,24083.826,24235.193,24316.285,24525.498,0.110,0.971,0.289,0.183,-0.916,-1.434,100.000,435.000,1.000
24050.926,24007.027,24287.229,24021.063,24138.813,24290.090,24371.270,24580.305,0.110,0.970,0.289,0.305,-0.977,-1.556,100.000,436.000,1.000
24135.504,24091.605,24372.074,24105.910,24223.391,24374.758,24456.027,24665.240,0.112,0.970,0.289,0.336,-1.160,-1.740,100.000,437.000,1.000
24223.213,24179.135,24459.426,24193.439,24311.010,24462.287,24543.469,24752.234,0.114,0.971,0.287,0.366,-1.129,-1.831,100.000,438.000,1.000
24281.416,24237.785,24517.898,24251.732,24369.303,24520.760,24602.209,24810.795,0.114,0.969,0.285,0.305,-0.916,-1.740,100.000,439.000,1.000
24340.336,24296.438,24576.729,24310.832,24428.490,24579.678,24660.949,24869.715,0.113,0.970,0.282,0.366,-0.671,-1.678,100.000,440.000,1.000
24431.174,24387.543,24667.477,24401.668,24519.150,24670.783,24751.697,24960.730,0.110,0.970,0.279,0.275,-0.366,-1.495,100.000,441.000,1.000
24531.398,24487.768,24768.059,24501.895,24619.285,24771.010,24852.012,25061.225,0.104,0.970,0.285,0.427,-0.153,-1.312,100.000,442.000,1.000
24601.941,24557.863,24838.332,24571.900,24689.828,24841.730,24922.285,25131.408,0.104,0.973,0.287,0.580,-0.122,-1.190,100.000,443.000,1.000
24661.039,24617.229,24897.520,24631.176,24749.283,24900.918,24981.563,25190.506,0.102,0.974,0.288,0.488,0.122,-1.007,100.000,444.000,1.000
24747.049,24703.596,24983.797,24717.186,24835.025,24986.928,25067.572,25276.785,0.099,0.975,0.289,0.397,0.275,-0.732,100.000,445.000,1.000
24846.736,24803.375,25083.396,24816.965,24934.623,25086.525,25167.529,25376.205,0.098,0.976,0.292,0.244,0.305,-0.488,100.000,446.000,1.000
24922.912,24879.371,25159.393,24893.049,25010.441,25162.791,25243.436,25452.379,0.100,0.975,0.297,-0.092,0.427,-0.244,100.000,447.000,1.000
24972.979,24929.170,25209.551,24943.207,25060.510,25212.770,25293.504,25502.180,0.103,0.971,0.298,-0.305,0.397,-0.153,100.000,448.000,1.000
25045.936,25002.484,25282.863,25015.895,25134.002,25285.547,25366.371,25575.852,0.103,0.970,0.294,-0.397,0.366,0.000,100.000,449.000,1.000
25142.227,25098.865,25378.709,25112.186,25230.740,25381.928,25462.840,25672.230,0.099,0.969,0.295,-0.214,0.305,-0.031,100.000,450.000,1.000
25222.066,25178.883,25458.639,25192.115,25310.490,25462.035,25542.770,25752.162,0.096,0.970,0.295,-0.092,0.153,0.061,100.000,451.000,1.000
25271.510,25228.057,25508.348,25241.646,25359.754,25511.656,25592.391,25801.871,0.097,0.971,0.297,0.031,0.153,0.000,100.000,452.000,1.000
25347.148,25304.053,25584.076,25317.197,25435.660,25587.742,25668.387,25877.689,0.093,0.972,0.299,0.397,0.092,0.061,100.000,453.000,1.000
25452.021,25409.018,25689.129,25421.893,25540.535,25692.258,25772.992,25982.563,0.089,0.971,0.299,0.488,-0.061,0.000,100.000,454.000,1.000
25549.029,25505.666,25785.867,25518.898,25637.273,25788.818,25869.553,26079.301,0.085,0.970,0.299,0.641,-0.244,0.000,100.000,455.000,1.000
25612.061,25568.162,25848.453,25581.662,25700.215,25851.225,25932.316,26141.977,0.085,0.971,0.298,0.610,-0.793,-0.183,100.000,456.000,1.000
25685.643,25641.744,25922.123,25655.602,25773.977,25925.432,26006.076,26215.826,0.088,0.972,0.291,0.458,-1.251,-0.153,100.000,457.000,1.000
25779.609,25736.158,26016.627,25749.658,25868.123,26019.936,26100.402,26310.061,0.091,0.972,0.290,0.397,-1.587,-0.122,100.000,458.000,1.000
25867.943,25824.580,26105.141,25837.902,25956.457,26108.180,26188.824,26398.395,0.095,0.972,0.286,0.214,-1.709,-0.122,100.000,459.000,1.000
25923.555,25880.281,26160.305,25893.424,26011.979,26163.523,26244.168,26454.006,0.095,0.972,0.289,0.214,-1.770,-0.061,100.000,460.000,1.000
25981.848,25938.486,26218.598,25951.807,26070.271,26221.906,26302.283,26512.389,0.099,0.972,0.293,0.061,-1.740,0.000,100.000,461.000,1.000
26062.045,26018.684,26299.152,26031.916,26150.559,26302.371,26382.748,26592.229,0.099,0.971,0.295,-0.122,-1.617,0.031,100.000,462.000,1.000
26141.529,26098.613,26378.457,26110.951,26229.684,26382.301,26462.053,26671.533,0.100,0.971,0.301,-0.183,-1.434,0.061,100.000,463.000,1.000
26183.104,26139.830,26420.031,26152.258,26271.348,26423.607,26503.537,26713.465,0.103,0.972,0.305,-0.183,-1.190,0.183,100.000,464.000,1.000
26219.850,26177.113,26456.867,26189.271,26308.361,26460.623,26540.283,26750.391,0.104,0.973,0.305,-0.122,-0.763,0.183,100.000,465.000,1.000
26280.377,26237.463,26516.859,26249.621,26368.711,26520.703,26600.633,26810.561,0.107,0.972,0.305,-0.092,-0.275,0.214,100.000,466.000,1.000
26353.781,26310.508,26590.352,26323.113,26442.383,26594.018,26673.947,26883.785,0.106,0.969,0.306,0.000,0.122,0.305,100.000,467.000,1.000
26399.646,26356.553,26636.396,26369.070,26488.248,26640.063,26719.992,26930.188,0.105,0.968,0.306,0.214,0.549,0.122,100.000,468.000,1.000
26416.098,26373.004,26653.025,26385.432,26505.146,26656.959,26736.443,26946.729,0.103,0.969,0.307,0.488,0.946,-0.031,100.000,469.000,1.000
26454.006,26410.732,26690.846,26423.160,26542.967,26694.600,26774.262,26984.637,0.099,0.969,0.306,0.732,1.190,0.000,100.000,470.000,1.000
26506.846,26463.842,26743.686,26476.180,26595.805,26747.529,26827.727,27037.387,0.098,0.968,0.302,1.007,1.373,-0.061,100.000,471.000,1.000
26536.260,26492.898,26772.920,26505.236,26624.863,26776.408,26856.785,27066.443,0.095,0.968,0.306,1.251,1.526,-0.214,100.000,472.000,1.000
26536.082,26492.719,26772.652,26505.236,26624.594,26776.408,26856.695,27066.266,0.094,0.970,0.304,1.282,1.648,-0.305,100.000,473.000,1.000
26542.697,26499.693,26779.270,26511.764,26631.301,26783.023,26863.133,27072.791,0.094,0.969,0.299,1.465,1.678,-0.336,100.000,474.000,1.000
26559.506,26515.875,26795.809,26528.393,26647.840,26799.564,26879.762,27089.332,0.091,0.969,0.297,1.556,1.709,-0.305,100.000,475.000,1.000
26554.857,26511.584,26791.070,26523.832,26643.281,26795.094,26875.113,27084.771,0.092,0.969,0.295,1.526,1.617,-0.244,100.000,476.000,1.000
26522.135,26479.219,26758.885,26491.557,26611.004,26762.639,26843.016,27052.406,0.092,0.969,0.292,1.465,1.495,-0.336,100.000,477.000,1.000
26503.270,26460.086,26740.020,26472.691,26592.141,26743.686,26824.240,27033.453,0.091,0.966,0.289,1.312,1.099,-0.305,100.000,478.000,1.000
26511.494,26467.953,26747.797,26480.471,26599.828,26751.373,26831.840,27041.410,0.094,0.966,0.288,1.251,0.732,-0.336,100.000,479.000,1.000
26519.898,26476.895,26756.738,26489.232,26608.502,26760.225,26840.334,27050.082,0.096,0.964,0.286,1.160,0.305,-0.366,100.000,480.000,1.000
26509.438,26466.613,26746.457,26478.861,26598.219,26750.391,26829.783,27040.068,0.096,0.964,0.284,1.068,-0.092,-0.305,100.000,481.000,1.000
26534.740,26491.557,26771.490,26504.074,26623.254,26775.246,26854.996,27065.371,0.097,0.966,0.278,0.732,-0.519,-0.214,100.000,482.000,1.000
26612.525,26569.789,26849.811,26582.215,26701.752,26853.209,26933.316,27143.334,0.101,0.965,0.280,0.458,-1.099,0.031,100.000,483.000,1.000
26713.107,26670.191,26949.857,26682.531,26802.156,26953.434,27033.811,27243.469,0.106,0.965,0.278,0.183,-1.465,0.244,100.000,484.000,1.000
26791.965,26748.781,27028.535,26761.029,26880.746,27032.111,27112.488,27322.326,0.110,0.961,0.273,-0.031,-1.740,0.519,100.000,485.000,1.000
26860.896,26817.625,27097.469,26829.873,26949.768,27101.402,27181.332,27391.438,0.109,0.962,0.274,-0.092,-1.831,0.732,100.000,486.000,1.000
26941.631,26898.627,27178.293,26910.518,27030.592,27182.227,27261.887,27471.994,0.107,0.961,0.282,-0.061,-1.770,1.038,100.000,487.000,1.000
27018.879,26976.053,27255.896,26987.588,27107.660,27259.385,27339.225,27549.242,0.100,0.960,0.284,-0.214,-1.678,1.282,100.000,488.000,1.000
27048.205,27005.111,27285.133,27016.465,27136.896,27288.621,27368.729,27578.299,0.100,0.962,0.285,-0.397,-1.465,1.495,100.000,489.000,1.000
27028.178,26985.262,27265.018,26996.527,27116.779,27268.682,27348.791,27558.451,0.100,0.961,0.281,-0.580,-1.190,1.465,100.000,490.000,1.000
26991.164,26948.338,27227.645,26959.514,27079.855,27231.668,27311.508,27521.168,0.100,0.962,0.283,-0.732,-0.885,1.434,100.000,491.000,1.000
26945.744,26903.008,27182.584,26914.451,27034.883,27186.250,27266.268,27476.375,0.098,0.963,0.285,-0.763,-0.671,1.404,100.000,492.000,1.000
26893.262,26850.078,27130.191,26862.148,26981.955,27133.588,27213.877,27424.250,0.098,0.963,0.283,-0.916,-0.458,1.434,100.000,493.000,1.000
26846.234,26803.141,27083.162,26815.299,26935.373,27086.740,27167.027,27377.223,0.098,0.965,0.282,-0.977,-0.305,1.434,100.000,494.000,1.000
26832.287,26789.371,27069.395,26801.352,26921.246,27072.971,27153.080,27363.365,0.102,0.965,0.284,-1.007,-0.275,1.434,100.000,495.000,1.000
26826.922,26784.186,27063.762,26795.898,26915.883,27067.158,27147.625,27357.463,0.105,0.966,0.281,-1.099,-0.214,1.312,100.000,496.000,1.000
26802.246,26759.330,27038.906,26771.223,26891.207,27042.393,27122.859,27332.609,0.109,0.968,0.279,-1.312,-0.092,1.099,100.000,497.000,1.000
26759.957,26716.684,26996.527,26728.754,26848.738,26999.926,27080.303,27290.051,0.111,0.969,0.277,-1.495,-0.214,1.129,100.000,498.000,1.000
26709.264,26665.990,26946.102,26678.508,26798.490,26949.230,27029.877,27239.715,0.114,0.970,0.275,-1.678,-0.427,1.068,100.000,499.000,1.000
26670.281,26627.188,26907.479,26639.793,26759.600,26910.340,26991.074,27201.090,0.117,0.972,0.277,-1.984,-0.458,0.977,100.000,500.000,1.000
26654.547,26611.721,26891.385,26623.701,26743.326,26894.693,26975.428,27185.355,0.118,0.970,0.277,-2.014,-0.641,0.916,100.000,501.000,1.000
26638.006,26595.359,26874.756,26607.070,26726.787,26878.422,26959.066,27168.814,0.118,0.970,0.275,-2.045,-0.702,0.946,100.000,502.000,1.000
26638.006,26595.180,26874.666,26606.893,26726.877,26878.689,26958.977,27168.637,0.118,0.966,0.280,-2.075,-0.610,1.099,100.000,503.000,1.000
26633.803,26591.336,26871.180,26602.869,26722.854,26874.398,26954.775,27164.434,0.119,0.964,0.282,-1.953,-0.519,1.312,100.000,504.000,1.000
26612.793,26569.967,26850.168,26582.127,26702.021,26853.297,26933.764,27143.781,0.117,0.964,0.282,-1.770,-0.397,1.556,100.000,505.000,1.000
26580.605,26537.602,26817.893,26550.297,26669.477,26821.111,26901.846,27111.594,0.112,0.972,0.285,-1.190,-0.610,1.770,100.000,506.000,1.000
26594.285,26551.371,26832.020,26564.066,26683.156,26834.969,26915.525,27125.541,0.111,0.981,0.289,-0.946,-0.702,1.831,100.000,507.000,1.000
26647.840,26605.193,26885.217,26617.441,26736.979,26888.793,26969.080,27179.098,0.108,0.984,0.291,-0.946,-0.763,1.801,100.000,508.000,1.000
26705.418,26662.504,26942.168,26674.127,26794.109,26946.102,27026.479,27236.139,0.104,0.986,0.295,-1.190,-0.946,1.770,100.000,509.000,1.000
26729.736,26686.732,26966.486,26698.533,26818.430,26970.332,27050.439,27260.457,0.102,0.986,0.302,-1.404,-1.068,1.556,100.000,510.000,1.000
26736.174,26693.260,26973.281,26705.240,26825.045,26976.410,27057.057,27266.805,0.098,0.979,0.308,-1.648,-1.160,1.221,100.000,511.000,1.000
26707.922,26665.453,26945.209,26677.523,26797.061,26948.785,27029.162,27239.000,0.096,0.976,0.307,-1.678,-1.190,0.885,100.000,512.000,1.000
26604.746,26562.100,26841.854,26573.900,26693.617,26845.609,26925.627,27135.555,0.096,0.979,0.303,-1.404,-1.190,0.488,100.000,513.000,1.000
26399.289,26356.463,26636.217,26368.354,26487.891,26639.615,26720.082,26929.563,0.096,0.979,0.300,-0.977,-1.007,0.183,100.000,514.000,1.000
26107.197,26064.459,26344.035,26076.439,26195.619,26347.611,26428.258,26637.379,0.098,0.978,0.301,-0.305,-0.793,-0.122,100.000,515.000,1.000
25761.281,25718.455,25998.477,25731.240,25849.883,26001.965,26082.520,26291.822,0.103,0.978,0.302,0.031,-0.732,-0.427,100.000,516.000,1.000
25360.738,25317.822,25597.576,25330.697,25449.340,25601.152,25681.619,25891.457,0.105,0.978,0.302,0.458,-0.671,-0.763,100.000,517.000,1.000
24890.814,24847.631,25127.654,24860.773,24978.969,25130.783,25211.785,25421.176,0.107,0.976,0.301,0.610,-0.610,-1.099,100.000,518.000,1.000
24356.070,24312.352,24592.285,24326.299,24443.779,24595.504,24676.773,24885.896,0.107,0.976,0.298,0.610,-0.427,-1.404,100.000,519.000,1.000
23810.063,23766.254,24046.188,23780.559,23897.682,24049.227,24130.766,24339.889,0.107,0.977,0.303,0.580,-0.458,-1.617,100.000,520.000,1.000
23261.818,23218.367,23498.301,23232.852,23349.617,23501.162,23582.791,23791.824,0.110,0.978,0.308,0.275,-0.336,-1.587,100.000,521.000,1.000
22706.244,22662.523,22942.457,22677.545,22793.506,22945.318,23027.215,23236.070,0.110,0.977,0.308,0.214,-0.305,-1.587,100.000,522.000,1.000
22143.695,22099.975,22379.641,22115.354,22230.777,22382.232,22464.666,22672.807,0.111,0.977,0.307,0.122,-0.427,-1.404,100.000,523.000,1.000
21615.748,21572.295,21851.871,21587.764,21703.008,21854.465,21937.076,22144.590,0.111,0.975,0.307,0.214,-0.488,-1.373,100.000,524.000,1.000
21119.539,21075.371,21355.215,21091.375,21205.816,21357.809,21440.063,21647.756,0.114,0.974,0.302,0.336,-0.519,-1.282,100.000,525.000,1.000
20636.205,20591.590,20871.613,20607.951,20722.125,20873.848,20956.639,21163.795,0.114,0.971,0.301,0.610,-0.275,-0.885,100.000,526.000,1.000
20142.678,20098.064,20377.996,20114.693,20228.330,20380.232,20463.381,20670.268,0.113,0.970,0.298,0.946,0.031,-0.458,100.000,527.000,1.000
19662.295,19618.217,19897.523,19634.488,19748.035,19899.580,19983.176,20189.795,0.109,0.970,0.296,1.221,0.275,-0.214,100.000,528.000,1.000
19200.328,19156.340,19435.289,19172.523,19286.070,19437.525,19520.941,19727.561,0.106,0.970,0.294,1.465,0.214,-0.061,100.000,529.000,1.000
18746.945,18702.957,18981.639,18719.318,18832.508,18984.053,19067.021,19274.090,0.101,0.971,0.293,1.556,0.061,0.092,100.000,530.000,1.000
18287.125,18242.602,18521.193,18259.408,18372.240,18523.785,18606.576,18813.553,0.094,0.973,0.292,1.587,-0.305,0.183,100.000,531.000,1.000
17841.432,17796.729,18075.410,17813.625,17925.832,18077.645,18161.061,18367.324,0.089,0.976,0.292,1.617,-0.732,0.244,100.000,532.000,1.000
17421.219,17376.783,17655.287,17393.324,17505.797,17657.521,17740.402,17946.842,0.084,0.975,0.292,1.312,-1.312,0.336,100.000,533.000,1.000
17013.611,16968.820,17247.322,16985.449,17097.924,17249.379,17332.705,17538.699,0.085,0.976,0.292,0.824,-1.740,0.122,100.000,534.000,1.000
16586.693,16541.990,16825.590,16564.342,16672.883,16824.338,16911.242,17116.787,0.085,0.975,0.292,0.366,-2.014,0.061,100.000,535.000,1.000
16162.547,16118.112,16404.930,16143.771,16247.573,16399.387,16486.201,16691.836,0.086,0.974,0.287,0.031,-2.075,-0.183,100.000,536.000,1.000
15799.197,15753.957,16029.867,15768.352,15890.481,16042.026,16116.592,16322.317,0.086,0.971,0.286,-0.061,-2.106,-0.427,100.000,537.000,1.000
15493.426,15448.007,15717.301,15455.695,15570.673,15721.503,15816.542,16022.089,0.092,0.971,0.280,-0.153,-2.075,-0.519,100.000,538.000,1.000
15217.694,15172.633,15448.722,15187.653,15296.998,15448.096,15535.536,15741.440,0.095,0.970,0.282,-0.153,-1.801,-0.641,100.000,539.000,1.000
14959.666,14914.336,15191.141,14930.161,15041.741,15192.929,15276.435,15481.892,0.100,0.969,0.283,0.092,-1.465,-0.793,100.000,540.000,1.000
14751.079,14705.750,14982.465,14721.307,14832.976,14984.521,15067.938,15273.037,0.103,0.970,0.282,0.336,-0.946,-0.885,100.000,541.000,1.000
14600.160,14554.741,14831.813,14570.656,14681.789,14833.154,14916.840,15121.761,0.104,0.971,0.286,0.549,-0.427,-0.916,100.000,542.000,1.000
14489.653,14444.234,14721.396,14460.328,14571.640,14722.559,14806.154,15010.896,0.100,0.970,0.286,0.580,0.275,-0.916,100.000,543.000,1.000
14405.343,14360.013,14636.639,14375.928,14487.149,14638.247,14721.754,14926.854,0.098,0.971,0.283,0.610,0.732,-0.824,100.000,544.000,1.000
14370.831,14325.592,14601.859,14341.148,14452.191,14603.558,14687.242,14891.984,0.095,0.972,0.281,0.641,1.068,-0.824,100.000,545.000,1.000
14375.570,14330.419,14606.508,14345.797,14456.662,14608.386,14691.713,14896.634,0.092,0.971,0.282,0.732,1.221,-0.702,100.000,546.000,1.000
14403.018,14357.867,14634.313,14373.692,14484.646,14635.923,14719.161,14924.528,0.089,0.970,0.279,0.763,1.434,-0.610,100.000,547.000,1.000
14438.423,14393.451,14669.987,14409.098,14520.052,14671.686,14754.924,14960.112,0.087,0.969,0.284,0.854,1.648,-0.427,100.000,548.000,1.000
14509.859,14464.798,14741.065,14480.533,14591.577,14742.765,14826.539,15031.370,0.086,0.969,0.289,0.763,1.678,-0.244,100.000,549.000,1.000
14614.019,14569.047,14845.493,14584.961,14696.362,14847.191,14931.056,15135.708,0.084,0.969,0.290,0.519,1.556,-0.214,100.000,550.000,1.000
14728.728,14683.309,14960.291,14699.849,14811.071,14962.259,15045.943,15250.686,0.084,0.971,0.295,0.397,1.129,-0.305,100.000,551.000,1.000
14826.628,14781.299,15058.281,14797.392,14908.793,15060.069,15143.576,15348.765,0.084,0.973,0.297,0.244,0.641,-0.275,100.000,552.000,1.000
14915.409,14869.901,15147.152,14886.352,14997.574,15148.762,15232.536,15437.725,0.087,0.973,0.297,0.092,0.183,-0.305,100.000,553.000,1.000
15005.889,14960.738,15237.900,14976.921,15088.591,15239.510,15323.463,15528.205,0.087,0.974,0.296,-0.061,-0.275,-0.214,100.000,554.000,1.000
15092.972,15048.089,15325.161,15064.093,15175.673,15326.592,15410.724,15615.466,0.091,0.974,0.291,-0.366,-0.702,-0.275,100.000,555.000,1.000
15156.808,15111.747,15388.641,15127.930,15239.241,15390.160,15474.203,15679.570,0.095,0.970,0.293,-0.549,-1.129,-0.488,100.000,556.000,1.000
15218.230,15173.080,15450.152,15189.441,15300.307,15451.404,15535.715,15741.172,0.096,0.972,0.289,-0.549,-1.343,-0.427,100.000,557.000,1.000
15295.479,15250.417,15527.221,15266.778,15375.677,15526.596,15613.409,15819.046,0.100,0.973,0.286,-0.549,-1.251,-0.366,100.000,558.000,1.000
15381.667,15336.427,15611.085,15349.927,15454.712,15605.452,15700.938,15906.218,0.104,0.972,0.283,-0.305,-1.099,-0.275,100.000,559.000,1.000
15465.083,15419.844,15687.438,15426.102,15527.132,15677.336,15786.681,15991.601,0.103,0.973,0.287,-0.092,-0.977,-0.153,100.000,560.000,1.000
15559.766,15514.257,15767.101,15505.048,15628.877,15779.438,15882.703,16087.981,0.104,0.973,0.293,0.061,-0.793,0.000,100.000,561.000,1.000
15674.653,15628.877,15906.038,15644.702,15775.325,15926.334,16010.466,16215.655,0.105,0.970,0.294,0.122,-0.671,0.031,100.000,562.000,1.000
15821.728,15775.951,16060.266,15800.091,15926.781,16077.968,16144.666,16350.392,0.104,0.971,0.297,0.092,-0.610,0.122,100.000,563.000,1.000
16005.190,15959.951,16215.834,15955.033,16086.819,16238.364,16292.009,16497.645,0.104,0.972,0.299,0.214,-0.580,0.244,100.000,564.000,1.000
16166.481,16121.599,16418.520,16157.004,16248.468,16400.281,16500.148,16705.516,0.103,0.973,0.294,0.061,-0.549,0.488,100.000,565.000,1.000
16385.707,16341.183,16641.410,16379.896,16479.316,16630.592,16727.063,16932.520,0.102,0.971,0.295,-0.092,-0.336,0.702,100.000,566.000,1.000
16666.623,16622.457,16901.406,16640.338,16751.561,16903.105,16987.416,17192.695,0.099,0.972,0.296,-0.122,-0.092,0.916,100.000,567.000,1.000
16950.938,16906.414,17184.559,16923.311,17035.248,17186.525,17270.479,17475.936,0.099,0.971,0.293,-0.061,0.183,1.007,100.000,568.000,1.000
17234.537,17189.834,17468.604,17206.910,17319.115,17470.393,17554.346,17760.250,0.097,0.971,0.291,-0.122,0.214,1.038,100.000,569.000,1.000
17537.090,17492.297,17771.158,17509.285,17621.758,17773.125,17857.078,18062.803,0.096,0.970,0.292,0.061,0.397,0.946,100.000,570.000,1.000
17853.949,17809.514,18088.195,17826.143,17938.885,18090.072,18174.115,18379.840,0.094,0.970,0.296,0.214,0.397,0.916,100.000,571.000,1.000
18178.049,18133.523,18412.295,18150.154,18263.164,18414.262,18498.125,18704.209,0.095,0.969,0.296,0.519,0.519,0.641,100.000,572.000,1.000
18487.039,18442.783,18721.465,18459.682,18572.781,18723.969,18807.117,19013.736,0.094,0.970,0.300,0.824,0.549,0.610,100.000,573.000,1.000
18807.742,18763.396,19042.436,18780.473,18893.395,19044.582,19127.818,19334.617,0.093,0.971,0.301,0.854,0.488,0.519,100.000,574.000,1.000
19144.092,19099.834,19378.873,19116.375,19229.742,19381.109,19464.168,19670.967,0.093,0.971,0.299,0.916,0.549,0.305,100.000,575.000,1.000
19478.205,19433.859,19712.898,19450.311,19564.125,19715.670,19798.551,20005.527,0.094,0.969,0.296,0.854,0.427,-0.061,100.000,576.000,1.000
19780.043,19735.607,20014.916,19752.506,19866.320,20017.418,20100.389,20307.365,0.096,0.971,0.290,0.702,0.366,-0.336,100.000,577.000,1.000
20074.729,20030.383,20309.779,20046.924,20160.916,20311.836,20394.984,20602.141,0.099,0.968,0.286,0.549,0.275,-0.519,100.000,578.000,1.000
20386.490,20342.145,20621.453,20358.506,20472.768,20623.598,20706.836,20913.992,0.101,0.967,0.286,0.488,0.183,-0.763,100.000,579.000,1.000
20747.248,20703.170,20982.566,20719.174,20834.152,20985.428,21068.129,21275.643,0.105,0.969,0.287,0.488,0.153,-0.854,100.000,580.000,1.000
21044.615,21000.807,21280.381,21016.721,21131.430,21283.242,21365.676,21573.100,0.107,0.970,0.289,0.488,0.336,-0.885,100.000,581.000,1.000
21307.561,21263.932,21543.506,21279.576,21394.822,21546.457,21628.711,21836.314,0.109,0.970,0.291,0.458,0.488,-0.824,100.000,582.000,1.000
21594.559,21550.928,21831.307,21566.752,21682.176,21833.543,21916.424,22123.668,0.106,0.971,0.289,0.549,0.580,-0.732,100.000,583.000,1.000
21891.211,21847.758,22127.691,21863.227,21978.561,22129.928,22212.986,22420.500,0.103,0.971,0.285,0.519,0.549,-0.580,100.000,584.000,1.000
22175.256,22131.805,22411.381,22147.271,22262.695,22414.240,22496.406,22704.545,0.104,0.972,0.285,0.519,0.519,-0.397,100.000,585.000,1.000
22451.256,22407.535,22687.289,22423.361,22538.695,22690.420,22772.494,22980.813,0.103,0.974,0.285,0.275,0.458,-0.183,100.000,586.000,1.000
22749.518,22705.797,22985.730,22721.176,22837.047,22988.859,23070.846,23279.254,0.104,0.975,0.285,0.061,0.336,-0.031,100.000,587.000,1.000
23052.875,23009.244,23289.535,23024.533,23140.852,23292.664,23374.293,23582.701,0.104,0.976,0.288,-0.214,0.183,0.122,100.000,588.000,1.000
23338.531,23295.348,23575.102,23310.188,23426.686,23578.498,23660.396,23868.713,0.103,0.971,0.287,-0.549,0.092,0.275,100.000,589.000,1.000
23603.354,23560.260,23840.193,23574.744,23691.330,23843.412,23925.129,24133.537,0.101,0.970,0.291,-0.763,-0.061,0.427,100.000,590.000,1.000
23881.320,23837.957,24118.160,23852.531,23969.297,24121.377,24203.186,24411.594,0.102,0.969,0.293,-0.763,-0.275,0.397,100.000,591.000,1.000
24162.773,24119.500,24399.971,24134.164,24251.287,24403.010,24484.729,24692.867,0.102,0.968,0.296,-0.580,-0.458,0.336,100.000,592.000,1.000
24436.359,24393.443,24673.197,24407.748,24524.693,24676.416,24757.955,24966.363,0.099,0.969,0.297,-0.427,-0.519,0.336,100.000,593.000,1.000
24679.992,24636.721,24916.742,24650.756,24767.879,24920.051,25001.500,25210.176,0.099,0.970,0.299,-0.366,-0.824,0.214,100.000,594.000,1.000
24931.852,24888.311,25168.334,24902.615,25019.918,25172.000,25253.092,25462.305,0.096,0.972,0.301,-0.397,-1.007,0.153,100.000,595.000,1.000
25196.496,25153.045,25433.246,25167.172,25284.920,25436.555,25517.469,25726.949,0.096,0.972,0.301,-0.580,-1.099,-0.061,100.000,596.000,1.000
25457.477,25414.918,25694.584,25428.330,25546.525,25697.891,25778.805,25988.465,0.097,0.970,0.304,-0.610,-1.221,-0.183,100.000,597.000,1.000
25692.885,25650.059,25929.545,25663.291,25781.576,25933.568,26014.213,26223.873,0.099,0.968,0.305,-0.610,-1.251,-0.244,100.000,598.000,1.000
25933.301,25890.295,26170.139,25903.348,26021.992,26174.252,26254.449,26463.842,0.101,0.969,0.305,-0.671,-1.251,-0.214,100.000,599.000,1.000
26194.457,26151.453,26431.475,26164.328,26283.238,26435.230,26515.787,26725.268,0.104,0.967,0.304,-0.519,-1.190,-0.244,100.000,600.000,1.000
26457.135,26413.773,26693.707,26426.648,26545.648,26697.818,26778.195,26987.855,0.105,0.967,0.297,-0.366,-1.099,-0.153,100.000,601.000,1.000
26702.379,26659.373,26939.307,26671.713,26790.980,26943.152,27023.350,27233.188,0.112,0.967,0.289,-0.244,-0.885,-0.183,100.000,602.000,1.000
26948.426,26905.422,27185.176,26917.313,27037.207,27189.109,27269.219,27479.414,0.115,0.967,0.283,-0.153,-0.488,-0.153,100.000,603.000,1.000
27211.463,27168.994,27448.658,27180.617,27300.689,27452.414,27532.523,27742.809,0.112,0.968,0.280,0.031,-0.092,-0.061,100.000,604.000,1.000
27485.047,27442.758,27722.334,27453.934,27574.098,27725.910,27806.107,28016.482,0.113,0.968,0.277,0.153,0.397,-0.122,100.000,605.000,1.000
27741.645,27699.088,27979.111,27710.264,27830.605,27982.775,28062.527,28273.170,0.112,0.970,0.277,0.397,0.793,-0.183,100.000,606.000,1.000
27987.783,27945.314,28225.158,27956.400,28077.012,28229.182,28308.844,28519.307,0.106,0.974,0.282,0.641,1.190,-0.183,100.000,607.000,1.000
28255.109,28212.641,28492.574,28223.459,28344.338,28496.330,28576.170,28786.455,0.102,0.974,0.284,0.702,1.373,-0.244,100.000,608.000,1.000
28531.646,28489.088,28769.021,28499.639,28621.053,28772.775,28852.617,29062.992,0.100,0.971,0.283,0.610,1.556,-0.122,100.000,609.000,1.000
28791.998,28749.799,29029.375,28759.990,28881.494,29033.398,29112.969,29323.791,0.096,0.974,0.282,0.488,1.495,-0.244,100.000,610.000,1.000
29032.771,28990.750,29270.236,29000.586,29122.357,29274.350,29353.475,29564.385,0.092,0.976,0.285,0.153,1.343,-0.305,100.000,611.000,1.000
29286.508,29244.488,29523.615,29253.965,29375.736,29527.908,29606.943,29817.766,0.092,0.975,0.282,-0.061,0.977,-0.336,100.000,612.000,1.000
29548.828,29506.807,29785.846,29516.195,29638.324,29790.139,29868.906,30079.996,0.094,0.974,0.280,-0.366,0.671,-0.244,100.000,613.000,1.000
29801.314,29759.471,30038.600,29768.502,29891.168,30042.713,30121.748,30332.838,0.093,0.974,0.279,-0.427,0.366,-0.092,100.000,614.000,1.000
30029.838,29988.086,30267.660,29996.938,30120.051,30271.326,30350.631,30561.721,0.092,0.973,0.282,-0.427,0.183,-0.061,100.000,615.000,1.000
30267.035,30224.834,30504.590,30233.775,30356.711,30508.434,30587.381,30799.006,0.094,0.970,0.285,-0.458,-0.031,-0.031,100.000,616.000,1.000
30512.189,30470.258,30749.654,30478.482,30601.863,30753.678,30832.623,31043.803,0.093,0.966,0.290,-0.397,-0.214,-0.061,100.000,617.000,1.000
30746.256,30704.324,30983.721,30712.551,30836.289,30988.014,31066.869,31277.959,0.092,0.969,0.296,-0.336,-0.458,-0.092,100.000,618.000,1.000
30948.049,30906.295,31185.514,30914.789,31038.439,31190.252,31268.572,31480.109,0.092,0.972,0.299,-0.153,-0.732,-0.031,100.000,619.000,1.000
31152.344,31110.322,31389.719,31118.637,31242.555,31394.637,31473.045,31684.404,0.093,0.974,0.297,-0.092,-1.129,0.061,100.000,620.000,1.000
31365.221,31322.932,31602.775,31331.336,31455.074,31607.156,31685.834,31897.281,0.096,0.975,0.298,-0.153,-1.465,0.214,100.000,621.000,1.000
31573.002,31530.713,31810.646,31538.670,31662.945,31815.295,31893.170,32104.885,0.096,0.972,0.295,-0.214,-1.678,0.336,100.000,622.000,1.000
31752.531,31710.689,31990.355,31718.111,31843.012,31994.736,32072.699,32284.594,0.098,0.970,0.293,-0.549,-1.740,0.244,100.000,623.000,1.000
31927.412,31885.748,32165.145,31892.900,32017.893,32169.795,32247.578,32459.115,0.095,0.972,0.287,-0.702,-2.167,0.183,100.000,624.000,1.000
32109.713,32068.229,32347.357,32075.113,32200.014,32352.186,32429.789,32641.506,0.099,0.975,0.283,-0.916,-2.411,0.153,100.000,625.000,1.000
32295.680,32254.373,32533.055,32260.811,32385.980,32538.240,32615.936,32827.563,0.102,0.976,0.281,-1.160,-2.472,0.244,100.000,626.000,1.000
32459.830,32418.078,32696.938,32424.693,32549.773,32702.213,32779.641,32991.801,0.107,0.976,0.281,-1.007,-2.411,0.275,100.000,627.000,1.000
32611.375,32569.801,32849.020,32576.238,32701.676,32853.848,32931.184,33143.703,0.108,0.977,0.285,-1.160,-2.197,0.275,100.000,628.000,1.000
32781.605,32739.764,33018.980,32746.021,32872.086,33024.078,33101.324,33313.758,0.111,0.976,0.289,-1.282,-1.923,0.275,100.000,629.000,1.000
32956.129,32914.375,33193.863,32920.633,33047.055,33198.867,33276.383,33488.547,0.110,0.978,0.291,-1.282,-1.526,0.214,100.000,630.000,1.000
33108.656,33066.902,33346.391,33073.164,33199.672,33351.488,33428.734,33641.164,0.114,0.977,0.297,-1.129,-1.129,0.092,100.000,631.000,1.000
33244.824,33203.340,33482.469,33209.328,33335.840,33487.297,33564.723,33776.973,0.113,0.978,0.301,-1.099,-0.580,0.000,100.000,632.000,1.000
33396.637,33355.152,33634.012,33360.875,33487.297,33639.020,33716.176,33928.430,0.112,0.978,0.303,-0.763,-0.183,-0.061,100.000,633.000,1.000
33554.797,33513.402,33791.906,33518.676,33645.457,33797.449,33874.250,34086.770,0.111,0.977,0.302,-0.549,0.275,-0.122,100.000,634.000,1.000
33699.727,33658.063,33937.102,33663.160,33790.477,33942.734,34019.266,34231.609,0.109,0.977,0.307,-0.336,0.580,-0.122,100.000,635.000,1.000
33823.824,33782.520,34061.645,33787.434,33914.930,34067.012,34143.184,34356.063,0.109,0.975,0.307,-0.092,0.885,-0.122,100.000,636.000,1.000
33960.078,33919.488,34198.262,33924.137,34051.008,34203.535,34279.711,34492.676,0.110,0.973,0.305,0.031,1.160,-0.153,100.000,637.000,1.000
34109.926,34069.516,34348.195,34074.164,34201.391,34353.559,34429.824,34642.793,0.107,0.975,0.305,0.336,1.251,-0.275,100.000,638.000,1.000
34256.555,34215.961,34494.375,34220.434,34348.016,34499.918,34576.453,34789.328,0.109,0.972,0.307,0.488,1.312,-0.214,100.000,639.000,1.000
34376.629,34336.035,34614.629,34340.328,34468.090,34620.262,34696.258,34909.492,0.107,0.970,0.306,0.610,1.373,-0.305,100.000,640.000,1.000
34508.414,34467.375,34746.324,34472.023,34599.609,34751.957,34827.863,35041.012,0.103,0.970,0.302,0.885,1.465,-0.366,100.000,641.000,1.000
34656.293,34615.613,34894.293,34620.441,34747.664,34900.195,34975.832,35189.156,0.100,0.971,0.305,0.885,1.160,-0.336,100.000,642.000,1.000
34801.133,34760.363,35039.402,34764.832,34892.684,35044.945,35120.672,35333.996,0.098,0.971,0.303,0.854,0.793,-0.275,100.000,643.000,1.000
34918.254,34877.305,35156.434,34881.598,35009.629,35161.711,35237.797,35451.301,0.099,0.972,0.305,0.732,0.488,-0.275,100.000,644.000,1.000
35033.770,34993.090,35271.859,34997.199,35125.410,35277.402,35353.219,35566.723,0.096,0.971,0.305,0.824,0.061,-0.549,100.000,645.000,1.000
35159.297,35118.703,35397.832,35122.551,35250.848,35402.930,35478.926,35692.250,0.097,0.971,0.303,1.007,-0.519,-0.671,100.000,646.000,1.000
35285.270,35244.770,35524.254,35248.613,35377.270,35529.262,35605.527,35818.582,0.098,0.968,0.300,0.977,-0.946,-0.641,100.000,647.000,1.000
35384.691,35344.188,35623.406,35348.035,35476.957,35628.773,35704.770,35918.184,0.101,0.967,0.296,1.221,-1.434,-0.793,100.000,648.000,1.000
35478.391,35437.711,35716.926,35441.195,35570.121,35722.113,35797.750,36011.344,0.101,0.970,0.293,1.556,-1.709,-0.854,100.000,649.000,1.000
35588.270,35547.590,35827.164,35551.168,35680.090,35832.262,35907.813,36121.672,0.099,0.971,0.291,1.556,-1.801,-1.007,100.000,650.000,1.000
35698.957,35658.277,35938.121,35661.852,35791.137,35943.305,36018.945,36232.359,0.100,0.973,0.285,1.556,-1.984,-1.129,100.000,651.000,1.000
35784.875,35744.285,36023.949,35748.129,35877.055,36029.316,36104.598,36318.277,0.100,0.973,0.286,1.495,-1.923,-1.251,100.000,652.000,1.000
35860.781,35820.551,36099.945,35824.035,35953.051,36105.313,36180.504,36394.363,0.098,0.970,0.284,1.556,-1.617,-1.282,100.000,653.000,1.000
35949.922,35909.777,36189.176,35912.906,36042.367,36194.898,36269.641,36483.594,0.100,0.972,0.284,1.617,-1.556,-1.251,100.000,654.000,1.000
36047.285,36007.320,36286.809,36010.449,36139.910,36292.262,36367.273,36581.402,0.098,0.974,0.286,1.678,-1.434,-1.251,100.000,655.000,1.000
36134.457,36094.137,36373.711,36097.355,36226.816,36379.164,36454.176,36668.484,0.097,0.972,0.286,1.587,-1.343,-1.068,100.000,656.000,1.000
36202.051,36161.637,36441.215,36165.215,36294.586,36446.934,36522.125,36736.078,0.101,0.976,0.284,1.404,-1.068,-0.977,100.000,657.000,1.000
36281.176,36240.762,36520.160,36243.980,36373.801,36525.613,36601.160,36814.934,0.102,0.975,0.284,1.221,-0.641,-0.824,100.000,658.000,1.000
36373.086,36332.941,36612.160,36335.980,36465.801,36617.613,36693.160,36907.023,0.100,0.973,0.282,1.068,-0.153,-0.641,100.000,659.000,1.000
36457.039,36417.164,36696.293,36419.934,36549.844,36701.922,36777.203,36991.066,0.100,0.973,0.280,1.068,0.305,-0.458,100.000,660.000,1.000
36522.395,36482.160,36761.559,36485.113,36615.109,36767.191,36842.023,37056.242,0.098,0.970,0.283,0.916,0.580,-0.275,100.000,661.000,1.000
36605.813,36565.578,36844.887,36568.527,36698.617,36850.695,36925.352,37139.570,0.097,0.969,0.282,0.885,0.671,-0.244,100.000,662.000,1.000
36707.555,36667.504,36946.629,36670.004,36800.094,36952.176,37027.098,37241.047,0.097,0.969,0.280,0.763,0.854,-0.153,100.000,663.000,1.000
36807.871,36767.906,37046.945,36770.230,36900.316,37052.578,37127.500,37341.543,0.099,0.970,0.280,0.732,0.854,-0.061,100.000,664.000,1.000
36888.246,36848.016,37127.234,36850.520,36980.785,37132.598,37207.699,37422.008,0.101,0.966,0.285,0.671,1.007,-0.031,100.000,665.000,1.000
36976.223,36936.348,37215.566,36938.762,37069.027,37221.020,37296.301,37510.430,0.102,0.964,0.286,0.793,1.099,-0.153,100.000,666.000,1.000
37081.457,37041.223,37320.621,37043.816,37174.172,37326.254,37401.266,37615.574,0.098,0.968,0.285,1.038,1.068,-0.153,100.000,667.000,1.000
37195.898,37155.395,37434.883,37157.719,37288.613,37440.605,37515.973,37730.016,0.097,0.968,0.286,1.221,0.702,-0.183,100.000,668.000,1.000
37292.277,37252.133,37531.531,37254.191,37384.727,37537.164,37612.266,37826.395,0.095,0.970,0.287,1.190,0.427,-0.183,100.000,669.000,1.000
37392.773,37353.164,37632.563,37355.219,37485.574,37638.105,37712.938,37927.246,0.092,0.969,0.289,1.282,0.153,-0.153,100.000,670.000,1.000
37517.227,37477.082,37756.480,37479.316,37609.672,37762.023,37836.766,38051.344,0.091,0.973,0.285,1.129,-0.366,-0.214,100.000,671.000,1.000
37648.117,37608.063,37887.816,37610.297,37741.191,37893.359,37968.016,38182.504,0.094,0.974,0.286,0.946,-0.671,-0.214,100.000,672.000,1.000
37758.895,37718.840,37998.684,37721.254,37852.234,38004.316,38078.969,38293.547,0.093,0.974,0.283,0.671,-0.732,-0.122,100.000,673.000,1.000
37866.898,37827.109,38106.863,37829.348,37960.504,38112.320,38186.883,38401.551,0.090,0.973,0.286,0.458,-0.641,0.031,100.000,674.000,1.000
37987.148,37947.273,38226.938,37949.152,38080.313,38232.570,38306.691,38521.445,0.086,0.973,0.289,0.244,-0.549,0.183,100.000,675.000,1.000
38116.074,38076.020,38355.684,38077.898,38209.234,38361.676,38435.613,38650.461,0.086,0.974,0.288,-0.031,-0.458,0.366,100.000,676.000,1.000
38230.961,38190.996,38470.660,38192.695,38324.570,38476.383,38550.594,38765.617,0.087,0.974,0.291,-0.336,-0.397,0.458,100.000,677.000,1.000
38330.652,38291.043,38570.531,38292.473,38424.262,38576.250,38650.281,38865.305,0.088,0.971,0.291,-0.366,-0.336,0.702,100.000,678.000,1.000
38445.270,38406.199,38685.508,38407.273,38538.969,38691.320,38764.723,38980.371,0.088,0.969,0.292,-0.244,-0.366,0.824,100.000,679.000,1.000
38574.465,38534.766,38814.434,38535.750,38667.984,38819.887,38893.379,39109.207,0.085,0.970,0.292,-0.183,-0.336,0.824,100.000,680.000,1.000
38693.555,38654.125,38933.879,38654.930,38787.340,38939.332,39013.273,39228.387,0.087,0.969,0.292,-0.153,-0.244,0.824,100.000,681.000,1.000
38791.543,38752.203,39031.871,38753.098,38885.602,39037.324,39111.352,39326.375,0.090,0.967,0.291,-0.244,-0.122,0.854,100.000,682.000,1.000
38904.645,38864.680,39144.523,38865.750,38998.520,39150.512,39224.094,39439.297,0.091,0.965,0.290,-0.244,0.092,0.854,100.000,683.000,1.000
39030.617,38990.832,39270.586,38991.367,39124.762,39276.578,39350.070,39565.184,0.092,0.965,0.288,-0.183,0.244,0.885,100.000,684.000,1.000
39148.098,39108.938,39388.336,39109.387,39242.156,39394.059,39467.551,39682.930,0.093,0.962,0.285,0.000,0.397,0.732,100.000,685.000,1.000
39243.137,39203.891,39483.734,39204.516,39336.926,39489.367,39562.859,39777.973,0.096,0.965,0.283,0.214,0.397,0.641,100.000,686.000,1.000
39347.207,39307.957,39587.535,39308.496,39441.266,39593.434,39666.926,39882.309,0.097,0.965,0.280,0.458,0.305,0.549,100.000,687.000,1.000
39462.363,39423.023,39702.867,39423.563,39556.777,39708.680,39781.906,39997.465,0.096,0.965,0.279,0.610,0.031,0.336,100.000,688.000,1.000
39577.609,39538.359,39818.383,39538.984,39672.383,39824.461,39897.328,40112.980,0.093,0.968,0.282,0.732,-0.244,0.153,100.000,689.000,1.000
39668.180,39628.570,39908.953,39629.555,39762.414,39914.762,39988.078,40203.371,0.093,0.967,0.283,0.732,-0.488,0.061,100.000,690.000,1.000
39760.715,39721.109,40001.668,39722.090,39855.309,40007.656,40080.793,40296.176,0.094,0.969,0.282,0.641,-0.549,0.153,100.000,691.000,1.000
39870.688,39831.438,40111.816,39832.063,39965.637,40117.719,40191.031,40406.504,0.093,0.970,0.279,0.519,-0.641,0.122,100.000,692.000,1.000
39985.754,39946.504,40226.527,39946.770,40080.523,40232.516,40305.563,40521.480,0.090,0.969,0.281,0.183,-0.732,0.153,100.000,693.000,1.000
40077.215,40038.145,40318.613,40038.594,40172.254,40324.516,40397.203,40613.211,0.092,0.971,0.281,0.031,-0.885,0.092,100.000,694.000,1.000
40167.516,40128.000,40408.469,40128.805,40262.109,40414.637,40487.148,40703.422,0.092,0.974,0.279,-0.061,-1.068,0.122,100.000,695.000,1.000
40276.414,40236.988,40517.367,40238.148,40371.633,40523.805,40596.402,40812.590,0.095,0.974,0.277,-0.336,-1.038,0.183,100.000,696.000,1.000
40398.367,40359.207,40639.855,40359.922,40493.762,40645.934,40718.266,40934.629,0.098,0.973,0.277,-0.458,-1.007,0.305,100.000,697.000,1.000
40510.125,40470.695,40751.523,40471.145,40605.434,40757.336,40829.844,41046.297,0.101,0.970,0.277,-0.671,-0.824,0.488,100.000,698.000,1.000
40612.496,40572.711,40853.625,40573.691,40707.805,40859.797,40932.035,41148.848,0.104,0.968,0.276,-0.885,-0.763,0.458,100.000,699.000,1.000
40728.098,40688.582,40969.586,40689.477,40823.496,40975.934,41047.730,41263.914,0.110,0.969,0.273,-1.038,-0.610,0.580,100.000,700.000,1.000
40853.895,40814.109,41095.293,40815.094,40949.113,41101.195,41173.348,41389.262,0.112,0.969,0.271,-1.190,-0.275,0.549,100.000,701.000,1.000
40967.887,40928.012,41209.289,40928.906,41063.195,41215.367,41287.430,41503.258,0.113,0.973,0.271,-0.946,-0.031,0.641,100.000,702.000,1.000
41064.449,41024.484,41306.113,41025.645,41159.758,41312.105,41383.809,41600.441,0.111,0.969,0.273,-0.702,0.244,0.519,100.000,703.000,1.000
41174.418,41135.078,41416.176,41135.973,41269.906,41421.898,41493.691,41710.594,0.108,0.970,0.271,-0.671,0.488,0.549,100.000,704.000,1.000
41294.938,41255.691,41536.785,41256.137,41390.516,41542.508,41614.301,41831.203,0.107,0.973,0.276,-0.702,0.488,0.458,100.000,705.000,1.000
41408.934,41369.863,41651.047,41370.043,41504.688,41656.859,41728.293,41945.285,0.105,0.975,0.279,-0.793,0.427,0.305,100.000,706.000,1.000
41507.371,41467.762,41749.215,41468.121,41602.766,41754.938,41826.465,42043.363,0.106,0.977,0.282,-0.854,0.549,0.275,100.000,707.000,1.000
41616.625,41577.285,41859.008,41577.734,41712.293,41864.371,41935.809,42152.977,0.102,0.977,0.286,-0.824,0.458,0.214,100.000,708.000,1.000
41738.578,41699.059,41981.047,41699.684,41834.688,41986.504,42057.758,42274.840,0.099,0.976,0.292,-0.793,0.427,0.092,100.000,709.000,1.000
41862.941,41823.246,42105.234,41823.781,41958.605,42110.688,42182.125,42399.117,0.099,0.978,0.294,-0.732,0.336,-0.031,100.000,710.000,1.000
41964.867,41925.348,42207.070,41925.707,42060.621,42212.879,42284.316,42501.488,0.098,0.978,0.298,-0.641,0.366,-0.214,100.000,711.000,1.000
42073.941,42034.246,42316.055,42034.961,42169.609,42322.047,42393.305,42610.293,0.095,0.978,0.301,-0.641,0.702,-0.427,100.000,712.000,1.000
42200.273,42161.113,42442.746,42161.473,42296.297,42448.469,42519.637,42736.625,0.092,0.977,0.300,-0.610,0.702,-0.641,100.000,713.000,1.000
42335.012,42295.672,42577.395,42296.027,42430.945,42583.293,42654.371,42871.453,0.090,0.974,0.306,-0.519,0.793,-0.824,100.000,714.000,1.000
42441.406,42402.066,42684.145,42402.422,42537.070,42689.867,42760.590,42978.027,0.089,0.973,0.301,-0.458,0.763,-0.946,100.000,715.000,1.000
42548.605,42509.531,42790.984,42509.355,42644.180,42796.707,42867.430,43084.957,0.088,0.972,0.299,-0.122,0.549,-1.099,100.000,716.000,1.000
42672.969,42634.168,42915.887,42634.168,42768.992,42921.254,42991.703,43209.320,0.089,0.972,0.294,0.092,0.519,-1.068,100.000,717.000,1.000
42804.039,42764.969,43046.691,42765.148,42900.242,43052.324,43122.863,43340.570,0.088,0.974,0.294,0.153,0.458,-1.099,100.000,718.000,1.000
42917.945,42878.961,43160.684,42879.141,43013.879,43166.227,43236.859,43454.387,0.088,0.977,0.290,0.214,0.458,-1.221,100.000,719.000,1.000
43023.980,42984.730,43266.809,42985.090,43119.645,43271.996,43342.629,43560.512,0.089,0.979,0.290,0.092,0.366,-1.373,100.000,720.000,1.000
43144.234,43105.164,43387.332,43105.430,43239.988,43392.426,43463.059,43680.945,0.090,0.975,0.289,-0.031,0.305,-1.434,100.000,721.000,1.000
43271.996,43233.191,43515.273,43233.461,43368.289,43520.547,43590.820,43809.152,0.094,0.974,0.288,-0.214,0.092,-1.526,100.000,722.000,1.000
43384.113,43344.863,43627.121,43345.398,43480.227,43632.664,43702.668,43920.910,0.097,0.972,0.285,-0.305,-0.122,-1.587,100.000,723.000,1.000
43481.922,43442.672,43724.930,43442.941,43578.035,43730.117,43800.391,44018.277,0.099,0.970,0.288,-0.153,-0.427,-1.709,100.000,724.000,1.000
43598.512,43558.992,43841.250,43559.527,43694.535,43846.613,43916.711,44134.504,0.101,0.976,0.288,-0.031,-0.580,-1.648,100.000,725.000,1.000
43725.648,43686.129,43968.207,43686.754,43821.313,43973.750,44043.578,44261.820,0.102,0.978,0.288,-0.122,-0.580,-1.556,100.000,726.000,1.000
43842.414,43803.074,44085.422,43803.520,43937.988,44090.426,44160.613,44378.855,0.104,0.977,0.281,-0.305,-0.427,-1.587,100.000,727.000,1.000
43935.305,43895.789,44178.047,43896.324,44030.793,44182.965,44252.879,44471.660,0.103,0.977,0.281,-0.366,-0.427,-1.343,100.000,728.000,1.000
44037.676,43998.340,44280.863,43998.875,44133.344,44285.781,44355.520,44574.207,0.106,0.975,0.282,-0.397,-0.275,-1.251,100.000,729.000,1.000
44156.590,44117.340,44400.043,44117.785,44252.699,44404.691,44474.789,44693.387,0.106,0.972,0.283,-0.214,0.000,-1.068,100.000,730.000,1.000
44271.922,44233.031,44515.648,44233.301,44368.395,44520.207,44590.211,44808.902,0.105,0.974,0.290,0.000,0.427,-0.732,100.000,731.000,1.000
44363.566,44324.227,44606.844,44325.031,44459.945,44611.758,44681.586,44900.363,0.103,0.973,0.292,0.122,0.732,-0.458,100.000,732.000,1.000
44468.531,44428.922,44711.895,44429.637,44564.375,44716.543,44786.016,45005.063,0.098,0.972,0.293,0.244,0.946,-0.183,100.000,733.000,1.000
44589.766,44550.605,44833.398,44550.875,44685.969,44837.781,44907.430,45126.297,0.094,0.975,0.295,0.275,1.038,0.153,100.000,734.000,1.000
44709.660,44670.590,44953.742,44671.125,44806.129,44957.941,45027.680,45246.461,0.089,0.976,0.297,0.275,1.129,0.366,100.000,735.000,1.000
44809.082,44769.742,45053.074,44770.547,44905.191,45057.008,45126.742,45345.969,0.086,0.976,0.297,0.397,1.068,0.549,100.000,736.000,1.000
44914.758,44875.512,45158.660,44875.867,45010.695,45162.684,45232.422,45451.469,0.084,0.976,0.297,0.275,0.824,0.763,100.000,737.000,1.000
45036.801,44997.730,45280.523,44997.996,45132.465,45284.727,45354.641,45573.512,0.083,0.978,0.298,0.336,0.519,0.824,100.000,738.000,1.000
45160.988,45121.828,45404.801,45122.543,45256.832,45409.180,45478.738,45697.785,0.088,0.979,0.295,0.183,0.275,0.763,100.000,739.000,1.000
45263.090,45223.840,45506.813,45224.465,45358.664,45510.656,45580.664,45799.711,0.089,0.977,0.292,0.031,0.122,0.793,100.000,740.000,1.000
45359.469,45320.219,45603.551,45320.488,45454.957,45607.039,45676.953,45896.000,0.089,0.977,0.295,-0.122,-0.244,0.549,100.000,741.000,1.000
45473.555,45434.395,45717.992,45434.840,45569.488,45721.566,45791.215,46010.531,0.090,0.976,0.290,-0.153,-0.488,0.458,100.000,742.000,1.000
45595.148,45555.719,45839.586,45556.523,45691.258,45843.340,45912.988,46132.305,0.092,0.976,0.290,-0.244,-0.763,0.183,100.000,743.000,1.000
45694.926,45655.855,45939.184,45656.480,45790.949,45942.941,46012.500,46232.262,0.093,0.976,0.293,-0.153,-0.824,0.031,100.000,744.000,1.000
45786.211,45747.496,46030.648,45747.855,45882.410,46034.402,46103.961,46323.723,0.095,0.975,0.292,0.000,-0.854,-0.092,100.000,745.000,1.000
45894.750,45855.770,46139.008,45856.395,45990.594,46142.855,46212.234,46431.996,0.098,0.971,0.291,0.244,-0.854,-0.275,100.000,746.000,1.000
46009.191,45969.582,46253.004,45970.297,46104.500,46256.758,46326.137,46545.902,0.101,0.970,0.289,0.305,-0.763,-0.488,100.000,747.000,1.000
46108.164,46068.469,46351.887,46069.273,46203.652,46355.555,46425.113,46644.426,0.101,0.971,0.283,0.397,-0.732,-0.549,100.000,748.000,1.000
46188.539,46148.934,46432.711,46150.008,46284.117,46436.199,46505.488,46725.074,0.104,0.971,0.284,0.519,-0.732,-0.549,100.000,749.000,1.000
46288.496,46249.516,46532.758,46250.055,46384.164,46536.602,46605.895,46825.387,0.104,0.974,0.283,0.458,-0.458,-0.610,100.000,750.000,1.000
46404.637,46365.477,46648.809,46365.926,46500.035,46652.297,46722.031,46941.617,0.102,0.973,0.279,0.427,-0.122,-0.427,100.000,751.000,1.000
46514.070,46475.000,46758.332,46475.715,46609.559,46761.551,46831.465,47050.961,0.100,0.970,0.279,0.366,0.153,-0.122,100.000,752.000,1.000
46600.082,46561.102,46844.520,46561.816,46695.391,46847.738,46917.117,47137.328,0.095,0.969,0.281,0.427,0.336,0.092,100.000,753.000,1.000
46700.754,46661.504,46944.926,46662.309,46795.883,46948.320,47017.434,47237.730,0.093,0.970,0.284,0.305,0.549,0.275,100.000,754.000,1.000
46815.820,46776.750,47059.902,46777.195,46911.129,47063.121,47132.590,47352.531,0.089,0.970,0.281,0.275,0.732,0.397,100.000,755.000,1.000
46925.613,46886.719,47170.051,46887.258,47021.277,47173.180,47242.559,47462.859,0.087,0.972,0.285,0.214,0.916,0.488,100.000,756.000,1.000
47013.141,46974.340,47257.492,46974.520,47108.629,47260.531,47329.730,47550.031,0.085,0.971,0.285,0.244,1.038,0.671,100.000,757.000,1.000
47109.699,47070.809,47354.051,47070.629,47205.367,47357.000,47426.023,47646.680,0.085,0.972,0.289,0.183,1.007,0.580,100.000,758.000,1.000
47223.516,47184.445,47468.043,47184.891,47319.359,47470.727,47540.016,47760.582,0.086,0.972,0.292,0.183,0.916,0.458,100.000,759.000,1.000
47340.641,47301.656,47584.809,47302.016,47435.945,47588.027,47657.230,47877.527,0.087,0.971,0.289,0.244,0.824,0.305,100.000,760.000,1.000
47434.250,47394.730,47678.328,47395.355,47529.555,47681.547,47750.570,47970.871,0.088,0.973,0.288,0.488,0.549,0.031,100.000,761.000,1.000
47527.320,47487.895,47771.402,47488.340,47622.719,47774.801,47843.465,48064.031,0.093,0.974,0.290,0.641,0.153,-0.214,100.000,762.000,1.000
47638.453,47599.203,47882.715,47599.203,47733.762,47885.664,47954.688,48175.434,0.093,0.975,0.293,0.854,-0.092,-0.336,100.000,763.000,1.000
47753.344,47714.539,47997.781,47714.719,47848.559,48000.730,48069.754,48290.590,0.094,0.974,0.294,0.885,-0.397,-0.519,100.000,764.000,1.000
47846.234,47807.344,48090.227,47807.434,47941.453,48093.266,48162.289,48383.125,0.094,0.974,0.293,0.946,-0.671,-0.610,100.000,765.000,1.000
47933.141,47893.621,48176.863,47894.070,48028.000,48180.082,48249.016,48469.672,0.096,0.976,0.292,0.763,-1.038,-0.549,100.000,766.000,1.000
48035.152,47996.082,48279.324,47996.352,48130.281,48282.273,48351.297,48571.684,0.096,0.976,0.292,0.336,-1.312,-0.610,100.000,767.000,1.000
48142.352,48103.371,48386.434,48103.551,48237.301,48389.203,48458.406,48678.973,0.096,0.975,0.290,0.061,-1.587,-0.519,100.000,768.000,1.000
48230.418,48190.898,48474.410,48191.613,48325.457,48477.539,48546.473,48766.949,0.097,0.975,0.288,-0.153,-1.953,-0.366,100.000,769.000,1.000
48305.340,48265.465,48549.152,48266.719,48400.469,48552.371,48621.125,48842.141,0.098,0.975,0.291,-0.488,-2.228,-0.153,100.000,770.000,1.000
48393.316,48353.711,48637.219,48354.605,48488.180,48640.258,48709.012,48929.938,0.099,0.971,0.292,-0.763,-2.319,0.305,100.000,771.000,1.000
48490.324,48450.895,48734.137,48451.789,48585.184,48737.445,48806.199,49026.855,0.102,0.968,0.294,-0.946,-2.228,0.793,100.000,772.000,1.000
48578.746,48539.141,48822.648,48540.391,48673.609,48825.957,48894.531,49115.637,0.103,0.971,0.291,-1.038,-2.045,1.068,100.000,773.000,1.000
48644.641,48604.945,48888.273,48605.836,48739.410,48891.492,48960.246,49181.172,0.104,0.970,0.291,-1.007,-1.801,1.343,100.000,774.000,1.000
48720.992,48681.477,48964.629,48682.102,48815.855,48967.938,49036.422,49257.523,0.104,0.970,0.288,-0.885,-1.495,1.526,100.000,775.000,1.000
48816.660,48777.410,49060.563,48778.125,48911.340,49063.691,49131.910,49353.457,0.104,0.973,0.284,-0.641,-1.251,1.526,100.000,776.000,1.000
48906.246,48866.816,49150.594,48867.801,49001.105,49153.277,49221.762,49442.777,0.101,0.973,0.280,-0.336,-0.946,1.556,100.000,777.000,1.000
48971.781,48932.621,49216.488,48933.691,49067.090,49219.078,49287.656,49508.668,0.094,0.972,0.277,-0.061,-0.702,1.495,100.000,778.000,1.000
49050.457,49011.477,49294.988,49012.551,49145.586,49297.938,49366.422,49587.703,0.092,0.973,0.279,0.183,-0.519,1.282,100.000,779.000,1.000
49145.141,49106.250,49389.578,49107.055,49240.090,49392.352,49460.926,49681.941,0.094,0.973,0.277,0.183,-0.458,1.068,100.000,780.000,1.000
49240.180,49200.930,49484.617,49202.004,49335.398,49487.121,49555.875,49776.891,0.096,0.971,0.280,0.122,-0.488,0.763,100.000,781.000,1.000
49309.383,49269.953,49553.730,49271.473,49404.422,49556.504,49625.168,49846.270,0.097,0.971,0.278,0.153,-0.458,0.336,100.000,782.000,1.000
49384.125,49345.145,49628.832,49346.574,49479.344,49631.516,49699.820,49921.191,0.096,0.973,0.281,0.214,-0.458,-0.031,100.000,783.000,1.000
49480.059,49440.988,49724.496,49441.973,49575.188,49727.539,49795.488,50017.039,0.095,0.971,0.281,0.153,-0.275,-0.397,100.000,784.000,1.000
49580.730,49541.215,49824.992,49542.285,49675.680,49828.211,49895.891,50117.531,0.095,0.970,0.281,0.366,0.092,-0.732,100.000,785.000,1.000
49658.785,49619.625,49903.223,49620.695,49753.824,49906.172,49974.121,50195.762,0.095,0.972,0.278,0.397,0.244,-0.977,100.000,786.000,1.000
49734.957,49695.797,49979.039,49696.781,49829.910,49981.902,50049.852,50271.578,0.093,0.972,0.273,0.336,0.305,-1.251,100.000,787.000,1.000
49829.016,49789.945,50073.184,49791.016,49924.145,50076.313,50143.906,50365.813,0.096,0.973,0.276,0.244,0.366,-1.343,100.000,788.000,1.000
49931.387,49892.402,50175.824,49893.656,50026.516,50178.684,50246.367,50468.094,0.098,0.972,0.279,0.153,0.427,-1.465,100.000,789.000,1.000
50017.484,49978.594,50262.102,49979.934,50112.523,50264.785,50332.645,50554.551,0.102,0.974,0.278,0.000,0.458,-1.312,100.000,790.000,1.000
50095.805,50056.824,50339.887,50057.719,50191.203,50343.105,50410.875,50632.871,0.102,0.974,0.281,-0.183,0.763,-1.282,100.000,791.000,1.000
50189.859,50150.879,50433.941,50151.594,50285.078,50437.160,50504.754,50726.480,0.104,0.972,0.281,-0.458,1.068,-0.977,100.000,792.000,1.000
50295.184,50256.379,50539.621,50257.184,50390.313,50542.660,50610.074,50832.160,0.101,0.972,0.283,-0.702,1.312,-0.793,100.000,793.000,1.000
50384.770,50345.520,50629.117,50347.039,50479.898,50632.156,50699.750,50922.016,0.100,0.972,0.285,-0.854,1.587,-0.458,100.000,794.000,1.000
50455.578,50416.508,50700.285,50417.848,50550.707,50702.969,50770.559,50992.734,0.099,0.970,0.284,-0.916,1.770,-0.275,100.000,795.000,1.000
50542.660,50503.680,50787.457,50505.020,50637.699,50789.961,50857.730,51079.641,0.098,0.969,0.283,-0.732,1.923,0.031,100.000,796.000,1.000
50640.293,50601.313,50885.180,50602.832,50735.332,50887.773,50955.184,51177.539,0.094,0.967,0.287,-0.610,1.923,0.275,100.000,797.000,1.000
50728.090,50688.930,50972.707,50690.449,50823.219,50975.570,51042.805,51265.336,0.097,0.968,0.292,-0.519,1.862,0.671,100.000,798.000,1.000
50795.059,50756.254,51039.852,50757.773,50890.363,51042.535,51109.770,51332.480,0.095,0.970,0.290,-0.488,1.526,0.885,100.000,799.000,1.000
50870.875,50832.250,51115.313,50833.500,50966.094,51118.086,51185.496,51407.852,0.093,0.970,0.293,-0.610,1.129,1.160,100.000,800.000,1.000
50955.813,50917.277,51200.160,50918.438,51051.027,51203.289,51270.613,51492.879,0.094,0.970,0.299,-0.916,0.488,1.251,100.000,801.000,1.000
51036.992,50998.012,51281.254,50999.352,51131.676,51284.203,51351.438,51573.883,0.094,0.970,0.303,-1.007,-0.153,1.404,100.000,802.000,1.000
51094.211,51055.051,51338.473,51056.660,51188.625,51341.332,51408.746,51630.922,0.094,0.968,0.301,-1.129,-0.824,1.526,100.000,803.000,1.000
51159.836,51120.945,51404.188,51122.285,51254.430,51407.047,51474.551,51696.727,0.097,0.969,0.300,-1.190,-1.434,1.678,100.000,804.000,1.000
51242.094,51203.199,51486.262,51204.453,51336.504,51489.301,51556.625,51778.801,0.096,0.969,0.304,-1.099,-2.136,1.831,100.000,805.000,1.000
51326.672,51287.602,51570.930,51289.211,51421.176,51573.703,51641.113,51863.559,0.100,0.967,0.303,-1.221,-2.808,1.831,100.000,806.000,1.000
51384.250,51345.180,51628.777,51346.875,51478.840,51631.281,51698.605,51920.871,0.105,0.965,0.302,-1.251,-3.510,1.892,100.000,807.000,1.000
51445.313,51406.691,51690.020,51408.121,51540.266,51693.063,51760.207,51982.293,0.106,0.965,0.296,-1.068,-3.754,1.953,100.000,808.000,1.000
51524.262,51485.277,51768.789,51486.711,51619.391,51771.648,51838.703,52061.238,0.107,0.966,0.298,-0.885,-3.662,1.923,100.000,809.000,1.000
51607.320,51568.426,51851.402,51569.680,51701.734,51853.992,51921.586,52144.031,0.105,0.965,0.299,-0.610,-3.693,1.953,100.000,810.000,1.000
51675.180,51636.020,51919.172,51637.539,51769.594,51921.852,51989.176,52211.801,0.103,0.969,0.293,-0.458,-3.601,1.892,100.000,811.000,1.000
51737.586,51698.516,51982.203,51700.391,51832.355,51984.707,52051.672,52274.563,0.099,0.971,0.294,-0.427,-3.265,1.770,100.000,812.000,1.000
51815.637,51776.387,52060.164,51778.535,51910.500,52062.668,52129.902,52352.617,0.096,0.975,0.292,-0.519,-2.960,1.709,100.000,813.000,1.000
51906.207,51867.047,52150.379,51869.191,52000.531,52153.328,52220.383,52442.738,0.092,0.977,0.286,-0.763,-2.411,1.495,100.000,814.000,1.000
51982.918,51944.027,52227.445,51945.813,52077.512,52230.574,52297.453,52519.629,0.093,0.974,0.284,-1.007,-1.770,1.312,100.000,815.000,1.000
52046.398,52007.504,52290.926,52009.023,52141.078,52293.785,52360.754,52583.020,0.094,0.975,0.283,-0.946,-0.854,1.068,100.000,816.000,1.000
52134.016,52094.586,52378.453,52096.645,52228.789,52381.227,52448.191,52670.727,0.093,0.974,0.275,-0.854,-0.122,0.702,100.000,817.000,1.000
52235.137,52195.887,52479.395,52197.852,52329.816,52482.344,52549.313,52771.934,0.095,0.971,0.274,-0.397,0.641,0.153,100.000,818.000,1.000
52321.949,52282.609,52565.852,52284.488,52416.543,52568.801,52635.500,52858.750,0.095,0.971,0.278,0.031,1.343,-0.214,100.000,819.000,1.000
52389.184,52349.844,52633.441,52351.988,52484.043,52636.215,52703.090,52925.895,0.092,0.973,0.280,0.397,1.923,-0.580,100.000,820.000,1.000
52472.152,52432.902,52716.234,52435.051,52566.746,52719.184,52786.063,53008.773,0.091,0.976,0.282,0.641,2.106,-0.977,100.000,821.000,1.000
52564.867,52526.156,52809.219,52528.301,52659.641,52812.258,52879.223,53101.848,0.094,0.972,0.283,0.793,2.411,-1.343,100.000,822.000,1.000
52651.145,52612.074,52895.676,52614.309,52746.008,52898.445,52965.234,53188.125,0.096,0.970,0.282,0.763,2.502,-1.495,100.000,823.000,1.000
52718.379,52679.578,52962.730,52681.543,52813.242,52965.770,53032.555,53255.625,0.097,0.967,0.284,0.763,2.594,-1.740,100.000,824.000,1.000
52794.914,52756.109,53039.262,52758.254,52889.594,53042.301,53109.000,53331.891,0.098,0.963,0.285,0.702,2.472,-1.984,100.000,825.000,1.000
52885.930,52846.859,53130.008,52849.629,52980.789,53133.406,53199.656,53422.816,0.100,0.964,0.282,0.610,1.801,-2.197,100.000,826.000,1.000
52975.336,52936.086,53219.508,52938.680,53070.285,53223.082,53288.977,53512.223,0.101,0.965,0.282,0.641,1.312,-2.258,100.000,827.000,1.000
53036.133,52997.328,53280.840,52999.477,53130.813,53283.789,53349.949,53573.020,0.099,0.966,0.284,0.580,0.916,-2.228,100.000,828.000,1.000
53099.969,53061.344,53344.945,53063.582,53195.008,53347.715,53413.875,53636.949,0.096,0.967,0.286,0.305,0.275,-2.014,100.000,829.000,1.000
53180.523,53141.633,53425.051,53144.137,53275.477,53428.359,53494.344,53717.504,0.094,0.968,0.290,0.031,-0.305,-1.923,100.000,830.000,1.000
53261.887,53222.902,53506.324,53225.316,53356.836,53509.363,53575.434,53798.684,0.093,0.968,0.290,-0.244,-0.946,-1.678,100.000,831.000,1.000
53324.293,53285.219,53568.641,53287.543,53418.973,53571.410,53637.574,53860.824,0.090,0.972,0.292,-0.488,-1.373,-1.434,100.000,832.000,1.000
53386.785,53347.625,53631.402,53350.488,53481.199,53633.996,53700.156,53923.227,0.085,0.973,0.287,-0.641,-1.709,-1.038,100.000,833.000,1.000
53465.285,53426.305,53710.172,53429.164,53560.059,53712.676,53778.836,54002.086,0.084,0.973,0.283,-0.763,-1.923,-0.671,100.000,834.000,1.000
53550.848,53511.777,53795.109,53514.637,53645.531,53797.969,53864.219,54087.738,0.084,0.976,0.281,-0.916,-1.953,-0.305,100.000,835.000,1.000
53615.578,53576.508,53860.020,53579.457,53709.992,53862.879,53928.859,54152.559,0.088,0.980,0.280,-1.343,-1.892,-0.183,100.000,836.000,1.000
53673.781,53634.711,53918.043,53637.664,53768.375,53920.902,53986.977,54210.582,0.089,0.980,0.287,-1.648,-1.984,0.153,100.000,837.000,1.000
53751.031,53712.051,53995.469,53715.000,53845.711,53998.152,54064.492,54287.832,0.090,0.981,0.290,-1.831,-2.075,0.183,100.000,838.000,1.000
53837.488,53798.328,54082.371,53801.188,53931.992,54084.520,54150.770,54374.375,0.085,0.983,0.289,-2.258,-2.167,0.214,100.000,839.000,1.000
53910.621,53871.371,54155.328,53874.500,54005.215,54157.832,54224.082,54447.691,0.083,0.982,0.286,-2.563,-2.167,0.183,100.000,840.000,1.000
53974.906,53935.926,54219.434,53938.516,54069.676,54222.117,54288.367,54511.793,0.083,0.985,0.289,-2.716,-1.923,0.183,100.000,841.000,1.000
54055.820,54017.195,54300.527,54019.965,54150.859,54303.207,54369.457,54592.887,0.080,0.986,0.295,-2.960,-1.953,0.031,100.000,842.000,1.000
54151.844,54112.949,54396.461,54116.168,54246.344,54399.141,54465.125,54688.730,0.079,0.986,0.292,-3.113,-1.831,-0.336,100.000,843.000,1.000
54238.387,54199.316,54483.094,54202.445,54332.891,54485.777,54551.582,54775.098,0.084,0.988,0.285,-3.143,-1.892,-0.763,100.000,844.000,1.000
54303.027,54264.137,54547.734,54267.176,54397.621,54550.148,54616.402,54840.098,0.087,0.986,0.280,-2.991,-1.770,-1.221,100.000,845.000,1.000
54381.172,54342.547,54625.789,54345.230,54475.762,54628.203,54694.453,54918.328,0.092,0.985,0.275,-2.808,-1.617,-1.617,100.000,846.000,1.000
54485.332,54446.707,54730.305,54449.836,54580.102,54732.719,54798.789,55022.668,0.094,0.984,0.273,-2.258,-1.282,-1.984,100.000,847.000,1.000
54602.813,54563.563,54847.070,54566.422,54697.137,54849.934,54915.379,55139.164,0.097,0.987,0.276,-1.709,-1.007,-2.289,100.000,848.000,1.000
54676.930,54637.770,54921.188,54640.453,54771.523,54923.871,54989.586,55213.191,0.096,0.987,0.274,-1.160,-0.671,-2.502,100.000,849.000,1.000
54750.957,54712.066,54995.398,54715.105,54845.730,54997.988,55064.152,55287.668,0.095,0.990,0.277,-0.610,-0.519,-2.716,100.000,850.000,1.000
54846.625,54807.641,55090.973,54810.594,54941.215,55093.746,55159.637,55383.066,0.094,0.992,0.278,-0.183,-0.366,-2.808,100.000,851.000,1.000
54947.742,54908.762,55191.914,54911.445,55042.246,55194.953,55260.488,55484.273,0.093,0.993,0.281,0.488,-0.366,-2.808,100.000,852.000,1.000
55028.926,54990.031,55273.094,54992.984,55123.340,55276.047,55341.492,55565.188,0.092,0.994,0.288,0.916,-0.427,-2.686,100.000,853.000,1.000
55111.359,55072.645,55356.066,55075.773,55206.219,55359.016,55424.551,55648.156,0.090,0.992,0.288,1.373,-0.580,-2.502,100.000,854.000,1.000
55206.398,55167.594,55450.836,55170.723,55301.258,55453.965,55519.500,55743.375,0.092,0.994,0.292,1.740,-0.732,-2.350,100.000,855.000,1.000
55303.047,55264.156,55547.039,55266.836,55397.727,55550.258,55615.703,55839.848,0.094,0.997,0.292,1.709,-0.763,-2.075,100.000,856.000,1.000
55368.938,55330.316,55613.199,55332.996,55464.156,55616.148,55681.418,55905.828,0.094,0.997,0.290,1.831,-0.702,-1.953,100.000,857.000,1.000
55423.297,55384.496,55667.918,55387.715,55518.250,55670.508,55735.867,55960.188,0.095,1.000,0.286,2.075,-0.458,-1.526,100.000,858.000,1.000
55496.703,55457.633,55741.320,55461.207,55591.652,55743.824,55809.270,56033.590,0.094,1.000,0.282,2.136,-0.427,-0.977,100.000,859.000,1.000
55581.906,55543.105,55826.613,55546.590,55677.125,55829.387,55894.563,56118.887,0.094,0.999,0.281,2.319,-0.458,-0.458,100.000,860.000,1.000
55648.781,55609.445,55892.598,55612.840,55743.465,55895.902,55961.438,56185.227,0.091,0.999,0.282,2.411,-0.641,-0.183,100.000,861.000,1.000
55705.379,55666.219,55949.457,55669.793,55799.703,55952.590,56018.125,56242.176,0.091,0.999,0.280,2.228,-0.916,0.092,100.000,862.000,1.000
55779.766,55740.516,56024.113,55744.180,55874.090,56026.707,56092.063,56316.563,0.089,0.999,0.282,2.014,-1.129,0.336,100.000,863.000,1.000
55859.961,55820.711,56104.313,55824.379,55954.285,56106.637,56172.262,56396.762,0.087,0.997,0.288,1.343,-1.495,0.763,100.000,864.000,1.000
55930.148,55891.254,56174.496,55894.207,56024.293,56176.910,56242.535,56466.855,0.086,0.993,0.289,0.641,-1.923,1.038,100.000,865.000,1.000
55982.449,55943.559,56226.977,55946.777,56076.863,56229.391,56294.750,56519.250,0.089,0.986,0.292,0.244,-2.411,1.160,100.000,866.000,1.000
56047.805,56008.645,56292.066,56012.402,56142.488,56294.840,56360.105,56584.250,0.092,0.980,0.295,0.061,-3.021,1.190,100.000,867.000,1.000
56125.055,56086.250,56369.672,56090.008,56219.914,56372.441,56437.531,56662.031,0.095,0.977,0.300,-0.031,-3.540,1.251,100.000,868.000,1.000
56196.758,56158.223,56441.555,56162.156,56291.797,56444.328,56509.504,56734.184,0.101,0.975,0.300,0.122,-3.937,1.373,100.000,869.000,1.000
56248.703,56209.813,56493.055,56213.836,56343.477,56495.734,56561.270,56785.594,0.108,0.973,0.298,0.397,-3.906,1.465,100.000,870.000,1.000
56317.367,56278.656,56561.629,56282.500,56412.141,56564.313,56630.023,56854.438,0.111,0.968,0.303,0.824,-3.601,1.740,100.000,871.000,1.000
56404.719,56366.094,56649.156,56370.117,56499.668,56652.020,56716.930,56941.875,0.110,0.963,0.303,1.373,-3.174,1.678,100.000,872.000,1.000
56491.891,56453.180,56735.973,56457.023,56586.840,56739.102,56804.277,57028.957,0.107,0.964,0.300,1.862,-2.655,1.648,100.000,873.000,1.000
56561.809,56522.469,56805.977,56526.848,56656.133,56808.480,56874.016,57098.516,0.104,0.967,0.297,2.319,-2.197,1.770,100.000,874.000,1.000
56640.934,56602.039,56885.012,56606.152,56735.523,56887.605,56952.961,57177.641,0.096,0.969,0.298,2.716,-1.617,1.801,100.000,875.000,1.000
56741.156,56702.801,56985.773,56706.289,56836.109,56988.547,57053.367,57278.227,0.093,0.970,0.300,2.838,-1.068,1.709,100.000,876.000,1.000
56846.301,56808.215,57091.277,56811.609,56941.609,57094.137,57158.508,57383.637,0.089,0.971,0.297,2.533,-0.519,1.648,100.000,877.000,1.000
56917.469,56879.023,57162.445,56883.227,57012.688,57165.125,57229.676,57454.625,0.083,0.967,0.292,2.197,-0.214,1.526,100.000,878.000,1.000
