EEG 1,EEG 2,EEG 3,EEG 4,EEG 5,EEG 6,EEG 7,EEG 8,Accelerometer X,Accelerometer Y,Accelerometer Z,Gyroscope X,Gyroscope Y,Gyroscope Z,Battery Level,Counter,Validation Indicator
361027.094,371843.094,130482.156,-41850.605,237579.828,-84601.711,-272999.656,158441.594,0.118,0.953,0.464,0.000,0.000,0.000,100.000,1.000,1.000
38969.105,10952.623,2441.705,-5825.491,16071.710,25067.930,-4509.420,5797.506,0.126,0.962,0.464,0.000,0.000,0.000,100.000,2.000,1.000
13.411,-3597.647,0.000,0.000,-815.392,3368.498,0.000,-1535.207,0.126,0.966,0.464,0.000,0.000,0.000,100.000,3.000,1.000
0.000,-3373.415,0.000,0.000,-3017.218,688.255,0.000,-1027.197,0.127,0.968,0.463,0.000,0.000,0.000,100.000,4.000,1.000
38.534,-2984.316,0.000,76.264,-3155.262,186.235,0.000,-731.975,0.125,0.970,0.462,-0.061,-0.061,-0.458,100.000,5.000,1.000
531.793,-2611.667,0.000,-2.950,-2614.975,36.925,0.000,-879.675,0.121,0.969,0.457,-0.824,-1.343,-5.219,100.000,6.000,1.000
441.134,-2316.177,0.000,-1436.234,-2222.836,71.436,-13.053,-921.339,0.121,0.970,0.456,-0.153,-0.610,-2.228,100.000,7.000,1.000
18.418,-2059.579,-0.089,-2065.391,-1870.662,-12.606,-558.078,-1165.331,0.122,0.970,0.456,0.092,-0.397,-1.221,100.000,8.000,1.000
3.845,-1813.799,-32.365,-1725.912,-1574.815,-366.926,-1446.516,-1061.350,0.122,0.969,0.452,0.183,-0.275,-0.763,100.000,9.000,1.000
298.441,-1501.501,-557.631,-1385.629,-1271.010,-584.185,-1325.190,-847.668,0.120,0.968,0.448,0.397,-0.244,-0.549,100.000,10.000,1.000
225.037,-1137.167,-904.530,-1088.798,-951.201,-444.710,-1059.294,-600.636,0.119,0.968,0.444,0.549,-0.336,-0.275,100.000,11.000,1.000
-685.215,-826.746,-678.063,-904.441,-689.507,-245.154,-898.272,-367.820,0.116,0.967,0.444,0.641,-0.519,-0.244,100.000,12.000,1.000
-644.267,-637.651,-504.792,-871.450,-511.855,-47.922,-874.132,-163.078,0.112,0.967,0.447,0.549,-0.641,-0.031,100.000,13.000,1.000
-564.426,-570.059,-405.997,-977.844,-397.235,2.503,-985.891,-13.947,0.113,0.965,0.449,0.488,-0.885,-0.153,100.000,14.000,1.000
-563.175,-609.577,-367.999,-1192.689,-338.763,24.855,-1233.012,110.507,0.111,0.967,0.450,0.275,-1.007,-0.183,100.000,15.000,1.000
-551.105,-553.250,-357.449,-986.695,-165.045,25.481,-1402.349,156.552,0.112,0.965,0.449,0.397,-1.068,-0.275,100.000,16.000,1.000
-442.028,-507.653,-333.399,-483.334,-71.168,4.828,-1117.230,48.369,0.111,0.964,0.451,0.519,-0.977,-0.183,100.000,17.000,1.000
-345.916,-446.588,-327.945,-425.488,-73.046,4.828,-656.337,25.392,0.112,0.964,0.449,0.458,-0.977,-0.214,100.000,18.000,1.000
-250.965,-337.154,-273.675,-236.750,-148.058,-17.524,-240.237,-18.507,0.117,0.964,0.452,0.519,-1.007,-0.183,100.000,19.000,1.000
-216.544,-291.824,-230.849,-208.139,-232.369,-157.982,-179.172,-128.388,0.120,0.963,0.452,0.336,-1.038,-0.397,100.000,20.000,1.000
-208.050,-263.035,-211.895,-202.060,-227.273,-197.768,-173.181,-161.737,0.124,0.962,0.453,0.336,-1.099,-0.305,100.000,21.000,1.000
-203.043,-252.932,-205.547,-196.427,-215.560,-182.748,-168.979,-156.194,0.125,0.963,0.450,0.214,-1.282,-0.397,100.000,22.000,1.000
-198.126,-246.674,-200.272,-191.599,-208.408,-175.685,-165.045,-151.634,0.124,0.961,0.452,0.244,-1.526,-0.488,100.000,23.000,1.000
-193.566,-241.309,-195.712,-187.218,-203.043,-171.214,-161.737,-148.058,0.124,0.962,0.451,0.366,-1.678,-0.427,100.000,24.000,1.000
-189.275,-236.303,-191.778,-183.195,-198.394,-167.459,-158.697,-145.018,0.126,0.961,0.448,0.641,-1.740,-0.366,100.000,25.000,1.000
-185.251,-231.475,-187.933,-179.619,-193.208,-163.972,-156.194,-142.515,0.130,0.963,0.446,0.854,-1.617,-0.458,100.000,26.000,1.000
-181.675,-226.826,-184.357,-176.311,-188.738,-160.396,-153.333,-139.654,0.131,0.962,0.446,0.977,-1.312,-0.458,100.000,27.000,1.000
-178.546,-222.802,-180.692,-173.092,-184.804,-157.446,-151.008,-137.061,0.134,0.963,0.443,1.129,-0.916,-0.458,100.000,28.000,1.000
-175.506,-218.779,-177.562,-170.052,-180.870,-154.406,-149.488,-134.736,0.135,0.967,0.443,1.007,-0.488,-0.549,100.000,29.000,1.000
-172.824,-215.203,-174.612,-167.280,-177.562,-151.634,-147.164,-132.501,0.133,0.970,0.439,0.610,-0.092,-0.671,100.000,30.000,1.000
-170.499,-211.537,-171.840,-164.777,-174.433,-149.310,-145.644,-130.624,0.134,0.971,0.439,0.336,0.244,-0.732,100.000,31.000,1.000
-167.817,-208.139,-169.337,-162.274,-171.304,-147.164,-143.856,-129.104,0.133,0.972,0.443,0.031,0.427,-0.702,100.000,32.000,1.000
-165.492,-205.278,-166.923,-159.949,-168.353,-145.197,-142.157,-127.047,0.134,0.971,0.444,-0.244,0.488,-0.671,100.000,33.000,1.000
-163.436,-201.970,-164.688,-158.072,-165.582,-143.051,-140.905,-125.170,0.133,0.970,0.448,-0.397,0.519,-0.610,100.000,34.000,1.000
-161.201,-199.020,-162.452,-156.105,-163.168,-140.816,-139.833,-123.918,0.132,0.973,0.446,-0.549,0.458,-0.671,100.000,35.000,1.000
-159.144,-196.338,-160.396,-154.406,-160.575,-139.475,-138.760,-122.398,0.132,0.975,0.446,-0.641,0.366,-0.549,100.000,36.000,1.000
-157.446,-193.834,-158.697,-152.886,-158.519,-137.955,-137.419,-120.878,0.134,0.974,0.451,-0.702,0.305,-0.458,100.000,37.000,1.000
-155.747,-191.420,-156.552,-151.187,-156.552,-136.524,-135.988,-119.627,0.129,0.972,0.455,-0.824,0.244,-0.488,100.000,38.000,1.000
-153.959,-188.559,-155.121,-149.220,-154.585,-134.826,-134.915,-118.554,0.128,0.972,0.452,-0.732,-0.031,-0.549,100.000,39.000,1.000
-152.171,-186.145,-153.691,-147.790,-152.707,-133.574,-134.021,-117.302,0.127,0.973,0.455,-0.641,-0.183,-0.427,100.000,40.000,1.000
-150.740,-184.268,-151.992,-146.627,-151.008,-132.322,-133.127,-116.318,0.124,0.970,0.459,-0.519,-0.397,-0.366,100.000,41.000,1.000
-149.399,-182.301,-150.561,-144.929,-149.310,-131.071,-132.322,-114.977,0.121,0.969,0.456,-0.397,-0.488,-0.305,100.000,42.000,1.000
-148.147,-179.976,-149.399,-143.588,-147.611,-129.819,-131.518,-114.083,0.121,0.967,0.461,-0.336,-0.702,-0.214,100.000,43.000,1.000
-146.806,-177.920,-147.969,-142.515,-146.180,-128.835,-130.713,-113.457,0.119,0.964,0.458,-0.244,-0.916,-0.183,100.000,44.000,1.000
-145.644,-176.132,-146.806,-141.174,-144.839,-127.941,-130.087,-112.385,0.115,0.964,0.458,0.061,-1.038,-0.244,100.000,45.000,1.000
-144.482,-174.433,-145.644,-140.101,-143.498,-126.779,-129.551,-111.401,0.111,0.964,0.457,0.397,-1.251,-0.336,100.000,46.000,1.000
-143.409,-172.555,-144.482,-139.296,-142.425,-125.885,-128.657,-110.686,0.108,0.965,0.457,0.519,-1.556,-0.458,100.000,47.000,1.000
-142.515,-170.857,-143.141,-138.402,-141.174,-124.902,-127.941,-110.060,0.110,0.964,0.456,0.549,-1.709,-0.641,100.000,48.000,1.000
-141.531,-169.784,-142.247,-137.419,-139.922,-124.186,-127.316,-109.166,0.111,0.962,0.456,0.641,-1.862,-0.732,100.000,49.000,1.000
-140.458,-168.532,-141.442,-136.524,-138.760,-123.471,-126.690,-108.451,0.116,0.960,0.453,0.702,-2.106,-0.763,100.000,50.000,1.000
-139.385,-167.012,-140.458,-135.630,-137.776,-122.666,-126.332,-107.914,0.119,0.962,0.451,0.793,-2.136,-0.793,100.000,51.000,1.000
-138.760,-165.939,-139.475,-134.826,-136.435,-122.219,-125.706,-107.378,0.123,0.962,0.447,0.824,-1.953,-0.885,100.000,52.000,1.000
-137.776,-164.866,-138.938,-134.021,-135.720,-121.236,-125.080,-106.752,0.125,0.962,0.447,0.763,-1.709,-1.160,100.000,53.000,1.000
-137.329,-163.347,-138.223,-133.306,-135.094,-120.610,-124.812,-106.215,0.125,0.963,0.449,0.702,-1.648,-1.495,100.000,54.000,1.000
-136.256,-162.274,-137.329,-132.769,-134.200,-120.163,-124.365,-105.858,0.129,0.962,0.450,0.519,-1.648,-1.862,100.000,55.000,1.000
-135.541,-161.290,-136.703,-132.233,-133.395,-119.537,-123.739,-105.143,0.137,0.965,0.449,0.305,-1.465,-2.106,100.000,56.000,1.000
-135.094,-160.396,-136.256,-131.786,-132.769,-118.732,-123.382,-104.517,0.134,0.967,0.443,0.122,-1.221,-2.197,100.000,57.000,1.000
-134.468,-159.323,-135.362,-130.892,-132.054,-118.107,-123.113,-103.891,0.134,0.968,0.444,0.153,-1.129,-2.502,100.000,58.000,1.000
-133.842,-158.340,-135.005,-130.177,-131.518,-117.928,-122.666,-103.802,0.134,0.969,0.439,0.031,-1.099,-2.502,100.000,59.000,1.000
-133.216,-157.356,-134.647,-129.819,-130.981,-117.391,-122.309,-103.444,0.130,0.972,0.436,-0.061,-1.190,-2.441,100.000,60.000,1.000
-132.501,-156.641,-133.842,-129.461,-129.819,-116.766,-121.951,-102.907,0.130,0.975,0.441,-0.031,-1.190,-2.441,100.000,61.000,1.000
-131.965,-155.836,-133.216,-128.657,-129.283,-116.229,-121.772,-102.729,0.125,0.974,0.439,-0.183,-1.190,-2.319,100.000,62.000,1.000
-131.696,-155.032,-132.680,-128.210,-128.925,-115.961,-121.325,-102.460,0.123,0.975,0.440,-0.244,-0.885,-2.289,100.000,63.000,1.000
-131.071,-154.316,-132.412,-127.941,-128.388,-115.514,-121.057,-101.924,0.122,0.978,0.441,-0.488,-0.610,-2.136,100.000,64.000,1.000
-130.624,-153.780,-131.965,-127.763,-127.852,-115.067,-121.057,-101.388,0.120,0.978,0.445,-0.580,-0.366,-2.197,100.000,65.000,1.000
-130.177,-153.065,-131.786,-127.137,-127.405,-114.799,-120.610,-101.119,0.122,0.976,0.448,-0.793,-0.214,-2.106,100.000,66.000,1.000
-129.998,-152.439,-131.249,-126.690,-126.869,-114.620,-120.163,-100.851,0.124,0.974,0.447,-0.916,0.031,-1.984,100.000,67.000,1.000
-129.730,-151.813,-130.713,-126.332,-126.332,-114.352,-120.252,-100.672,0.125,0.973,0.450,-0.916,0.153,-1.892,100.000,68.000,1.000
-129.283,-151.187,-130.355,-125.706,-125.974,-113.904,-119.984,-100.315,0.123,0.972,0.455,-0.854,0.061,-1.709,100.000,69.000,1.000
-128.835,-150.561,-129.998,-125.349,-125.617,-113.457,-119.895,-100.136,0.121,0.974,0.455,-0.671,-0.092,-1.556,100.000,70.000,1.000
-128.388,-150.204,-129.730,-125.349,-125.259,-113.189,-119.448,-99.778,0.121,0.977,0.458,-0.519,-0.366,-1.373,100.000,71.000,1.000
-128.299,-149.488,-129.104,-124.902,-124.902,-112.832,-119.090,-99.599,0.119,0.974,0.460,-0.336,-0.458,-1.129,100.000,72.000,1.000
-128.031,-149.041,-129.104,-124.633,-124.633,-112.474,-119.090,-99.599,0.116,0.972,0.461,-0.122,-0.702,-1.007,100.000,73.000,1.000
-127.584,-148.326,-128.657,-124.365,-124.276,-112.474,-118.822,-99.331,0.114,0.971,0.461,0.244,-0.916,-0.641,100.000,74.000,1.000
-127.137,-148.058,-128.210,-124.186,-123.918,-112.295,-118.732,-98.974,0.114,0.972,0.463,0.610,-1.068,-0.458,100.000,75.000,1.000
-127.137,-147.700,-127.941,-123.918,-123.739,-112.116,-118.285,-98.884,0.114,0.972,0.461,0.885,-1.373,0.000,100.000,76.000,1.000
-126.690,-147.253,-127.673,-123.650,-123.292,-111.669,-118.196,-98.884,0.115,0.971,0.459,1.099,-1.648,0.153,100.000,77.000,1.000
-126.690,-146.985,-127.316,-123.471,-123.024,-111.312,-118.107,-98.705,0.116,0.973,0.455,1.160,-1.953,0.397,100.000,78.000,1.000
-126.243,-146.806,-127.137,-122.935,-123.113,-111.222,-117.749,-98.437,0.117,0.971,0.457,1.038,-2.289,0.549,100.000,79.000,1.000
-125.974,-146.359,-127.316,-122.845,-122.666,-111.401,-117.749,-98.079,0.118,0.972,0.454,0.946,-2.502,0.610,100.000,80.000,1.000
-125.706,-145.823,-127.047,-122.577,-122.130,-111.222,-117.749,-97.811,0.118,0.972,0.453,0.763,-2.655,0.641,100.000,81.000,1.000
-125.349,-145.465,-126.421,-122.756,-121.951,-110.686,-117.570,-97.901,0.119,0.967,0.450,0.549,-2.747,0.641,100.000,82.000,1.000
-125.170,-145.286,-126.421,-122.398,-121.772,-110.596,-117.481,-97.632,0.121,0.967,0.447,0.397,-2.472,0.641,100.000,83.000,1.000
-125.259,-144.929,-126.332,-122.130,-121.504,-110.596,-117.302,-97.632,0.119,0.968,0.448,0.244,-2.136,0.488,100.000,84.000,1.000
-125.080,-144.839,-126.153,-122.130,-121.325,-110.149,-117.034,-97.632,0.121,0.966,0.447,0.092,-1.709,0.488,100.000,85.000,1.000
-124.633,-144.750,-125.974,-121.862,-121.236,-110.060,-117.034,-97.275,0.123,0.965,0.448,0.092,-1.282,0.244,100.000,86.000,1.000
-124.633,-143.945,-125.796,-121.504,-120.968,-109.971,-117.034,-97.096,0.123,0.961,0.450,0.031,-0.946,-0.061,100.000,87.000,1.000
-124.455,-143.677,-125.796,-121.415,-120.789,-109.881,-116.944,-97.096,0.122,0.957,0.451,0.153,-0.641,-0.366,100.000,88.000,1.000
-124.276,-143.588,-125.438,-121.146,-120.431,-109.702,-116.766,-97.096,0.123,0.958,0.449,0.305,-0.397,-0.702,100.000,89.000,1.000
-124.186,-143.230,-125.259,-121.057,-120.342,-109.434,-116.497,-96.917,0.119,0.962,0.455,0.549,-0.122,-0.824,100.000,90.000,1.000
-124.186,-143.141,-125.080,-121.146,-120.431,-109.166,-116.408,-96.470,0.119,0.962,0.458,0.885,0.183,-1.068,100.000,91.000,1.000
-123.829,-142.872,-124.812,-121.057,-120.074,-109.166,-116.408,-96.470,0.117,0.963,0.455,1.129,0.336,-1.129,100.000,92.000,1.000
-123.560,-142.783,-124.812,-120.878,-119.984,-109.255,-116.408,-96.470,0.116,0.965,0.454,1.282,0.671,-1.221,100.000,93.000,1.000
-123.471,-142.515,-124.812,-120.789,-119.984,-109.255,-116.318,-96.560,0.117,0.967,0.455,1.434,0.885,-1.251,100.000,94.000,1.000
-123.560,-142.247,-124.812,-120.521,-119.984,-108.987,-116.587,-96.381,0.116,0.968,0.454,1.373,0.946,-1.312,100.000,95.000,1.000
-123.560,-141.978,-124.544,-120.431,-119.716,-108.987,-116.140,-96.202,0.113,0.968,0.457,1.373,0.977,-1.190,100.000,96.000,1.000
-123.382,-141.799,-124.365,-120.342,-119.269,-108.987,-116.140,-96.113,0.117,0.967,0.456,1.343,0.793,-1.099,100.000,97.000,1.000
-123.292,-141.621,-124.276,-120.163,-119.090,-108.808,-115.961,-95.844,0.120,0.965,0.458,1.465,0.397,-0.977,100.000,98.000,1.000
-123.024,-141.442,-124.186,-120.163,-119.090,-108.540,-115.961,-95.934,0.122,0.964,0.461,1.709,0.061,-0.824,100.000,99.000,1.000
-123.113,-141.352,-124.186,-119.984,-119.001,-108.719,-115.871,-95.844,0.121,0.964,0.455,1.801,-0.275,-0.580,100.000,100.000,1.000
-123.113,-141.263,-124.186,-119.895,-118.911,-108.451,-115.782,-95.844,0.122,0.967,0.454,1.770,-0.610,-0.427,100.000,101.000,1.000
-122.666,-141.084,-124.007,-119.537,-118.911,-108.451,-115.693,-95.755,0.125,0.968,0.449,1.648,-0.885,-0.244,100.000,102.000,1.000
-122.666,-140.905,-123.918,-119.716,-118.822,-108.361,-115.693,-95.755,0.126,0.968,0.449,1.465,-1.099,-0.183,100.000,103.000,1.000
-122.666,-140.637,-123.560,-119.716,-118.732,-108.451,-115.693,-95.665,0.129,0.966,0.448,1.099,-1.373,0.031,100.000,104.000,1.000
-122.488,-140.458,-123.471,-119.627,-118.554,-108.182,-115.871,-95.665,0.126,0.965,0.446,0.854,-1.556,0.061,100.000,105.000,1.000
-122.398,-140.458,-123.292,-119.269,-118.554,-108.093,-115.782,-95.397,0.125,0.962,0.442,0.519,-1.740,-0.031,100.000,106.000,1.000
-122.219,-140.548,-123.292,-119.269,-118.554,-108.093,-115.603,-95.308,0.122,0.965,0.438,0.244,-1.770,-0.031,100.000,107.000,1.000
-122.219,-140.369,-123.471,-119.448,-118.464,-107.825,-115.514,-95.397,0.122,0.963,0.435,-0.153,-1.709,-0.153,100.000,108.000,1.000
-122.398,-140.011,-123.560,-119.448,-118.285,-108.004,-115.514,-95.397,0.121,0.958,0.432,-0.305,-1.587,-0.031,100.000,109.000,1.000
-122.219,-139.654,-123.292,-119.269,-118.196,-107.914,-115.424,-95.487,0.120,0.957,0.430,-0.580,-1.251,-0.031,100.000,110.000,1.000
-122.041,-139.833,-123.024,-119.001,-118.107,-107.735,-115.246,-95.397,0.118,0.958,0.432,-0.549,-1.038,0.061,100.000,111.000,1.000
-122.130,-140.011,-123.024,-119.001,-118.196,-107.557,-115.424,-95.308,0.117,0.958,0.432,-0.610,-0.854,0.061,100.000,112.000,1.000
-122.041,-140.011,-123.292,-119.090,-118.196,-107.646,-115.335,-95.129,0.119,0.959,0.433,-0.641,-0.702,0.153,100.000,113.000,1.000
-121.772,-139.833,-123.203,-119.090,-118.107,-107.914,-115.335,-95.129,0.121,0.956,0.432,-0.580,-0.610,0.061,100.000,114.000,1.000
-121.772,-139.833,-123.292,-119.001,-118.017,-107.825,-115.335,-95.129,0.123,0.957,0.433,-0.671,-0.580,-0.061,100.000,115.000,1.000
-121.772,-139.654,-123.024,-118.822,-117.838,-107.467,-114.977,-95.129,0.128,0.958,0.437,-0.763,-0.458,-0.153,100.000,116.000,1.000
-121.862,-139.564,-123.024,-118.911,-117.928,-107.467,-115.156,-95.040,0.131,0.960,0.432,-0.916,-0.397,-0.244,100.000,117.000,1.000
-121.862,-139.475,-122.666,-118.822,-117.838,-107.467,-115.067,-94.950,0.134,0.966,0.438,-1.038,-0.549,-0.305,100.000,118.000,1.000
-121.862,-139.385,-122.577,-118.643,-117.660,-107.646,-115.156,-95.040,0.135,0.968,0.437,-1.099,-0.732,-0.366,100.000,119.000,1.000
-121.683,-139.296,-122.488,-118.643,-117.481,-107.467,-115.067,-94.950,0.137,0.969,0.439,-1.160,-0.916,-0.458,100.000,120.000,1.000
-121.504,-139.207,-122.577,-118.822,-117.481,-107.288,-115.067,-94.861,0.139,0.970,0.440,-1.221,-1.190,-0.488,100.000,121.000,1.000
-121.504,-139.117,-122.666,-118.911,-117.660,-107.199,-115.156,-94.682,0.140,0.975,0.439,-1.465,-1.404,-0.458,100.000,122.000,1.000
-121.504,-139.207,-122.756,-118.822,-117.749,-107.199,-115.067,-94.771,0.140,0.974,0.443,-1.801,-1.617,-0.336,100.000,123.000,1.000
-121.504,-138.938,-122.756,-118.822,-117.660,-107.199,-114.977,-94.950,0.138,0.973,0.445,-1.862,-1.801,-0.122,100.000,124.000,1.000
-121.504,-139.028,-122.577,-118.554,-117.481,-107.199,-114.977,-94.771,0.136,0.974,0.450,-2.045,-2.014,0.122,100.000,125.000,1.000
-121.593,-139.028,-122.577,-118.375,-117.302,-107.020,-114.799,-94.682,0.135,0.978,0.449,-2.197,-2.106,0.214,100.000,126.000,1.000
-121.683,-138.938,-122.577,-118.375,-117.213,-107.110,-114.709,-94.771,0.133,0.978,0.452,-2.289,-2.228,0.183,100.000,127.000,1.000
-121.683,-138.849,-122.219,-118.375,-117.391,-107.020,-115.067,-94.771,0.132,0.975,0.452,-2.472,-2.258,0.122,100.000,128.000,1.000
-121.504,-138.849,-122.398,-118.375,-117.302,-106.931,-114.799,-94.771,0.131,0.973,0.453,-2.533,-2.197,0.122,100.000,129.000,1.000
-121.236,-138.491,-122.398,-118.196,-117.213,-107.020,-114.799,-94.950,0.128,0.969,0.457,-2.594,-2.167,0.092,100.000,130.000,1.000
-121.236,-138.670,-122.577,-118.107,-117.123,-107.110,-114.799,-94.682,0.124,0.967,0.459,-2.380,-2.045,0.061,100.000,131.000,1.000
-121.325,-138.581,-122.398,-118.375,-117.123,-107.020,-114.620,-94.414,0.120,0.965,0.458,-2.197,-1.892,0.000,100.000,132.000,1.000
-121.415,-138.402,-122.398,-118.464,-117.034,-107.110,-114.530,-94.593,0.117,0.965,0.454,-1.648,-1.709,-0.122,100.000,133.000,1.000
-121.057,-138.581,-122.219,-118.375,-117.034,-106.931,-114.799,-94.503,0.115,0.966,0.457,-1.007,-1.678,-0.336,100.000,134.000,1.000
-121.057,-138.491,-122.219,-118.196,-117.302,-106.931,-114.888,-94.414,0.118,0.963,0.459,-0.549,-1.617,-0.763,100.000,135.000,1.000
-121.236,-138.491,-122.219,-118.017,-117.481,-107.199,-114.799,-94.414,0.120,0.961,0.460,-0.153,-1.678,-1.160,100.000,136.000,1.000
-121.236,-138.491,-122.130,-118.285,-117.213,-107.020,-114.977,-94.414,0.124,0.962,0.463,0.092,-1.862,-1.526,100.000,137.000,1.000
-121.146,-138.313,-122.041,-118.375,-117.034,-106.931,-114.620,-94.503,0.125,0.966,0.462,0.092,-2.014,-1.770,100.000,138.000,1.000
-120.968,-138.134,-122.130,-118.196,-117.034,-107.199,-114.441,-94.503,0.126,0.968,0.459,0.000,-2.075,-1.984,100.000,139.000,1.000
-120.968,-138.313,-122.041,-118.107,-117.123,-107.020,-114.352,-94.414,0.127,0.970,0.462,-0.031,-2.014,-2.167,100.000,140.000,1.000
-121.146,-138.223,-121.951,-118.285,-117.034,-107.020,-114.530,-94.503,0.129,0.971,0.461,0.061,-1.923,-2.380,100.000,141.000,1.000
-121.057,-138.313,-121.951,-118.107,-116.855,-106.931,-114.620,-94.235,0.134,0.974,0.459,0.183,-1.617,-2.350,100.000,142.000,1.000
-121.057,-138.134,-121.951,-118.107,-116.766,-106.841,-114.530,-94.414,0.136,0.977,0.458,0.275,-1.221,-2.228,100.000,143.000,1.000
-120.968,-138.134,-121.862,-117.928,-116.855,-106.931,-114.530,-94.503,0.135,0.979,0.460,0.519,-0.916,-2.167,100.000,144.000,1.000
-120.878,-138.044,-122.041,-118.017,-117.034,-107.020,-114.530,-94.503,0.134,0.979,0.457,0.732,-0.702,-2.106,100.000,145.000,1.000
-121.057,-137.866,-121.951,-118.017,-116.944,-106.841,-114.620,-94.414,0.133,0.980,0.462,0.610,-0.549,-2.045,100.000,146.000,1.000
-120.968,-138.044,-121.951,-118.107,-116.766,-106.663,-114.620,-94.324,0.129,0.976,0.461,0.458,-0.732,-1.953,100.000,147.000,1.000
-120.968,-138.134,-121.862,-117.749,-116.587,-106.573,-114.530,-94.414,0.129,0.974,0.461,0.397,-0.916,-1.740,100.000,148.000,1.000
-120.968,-138.134,-121.862,-118.017,-116.676,-106.573,-114.352,-94.593,0.126,0.973,0.463,0.305,-1.068,-1.495,100.000,149.000,1.000
-121.057,-137.955,-121.951,-118.107,-116.944,-106.663,-114.530,-94.414,0.118,0.967,0.462,0.427,-1.282,-1.495,100.000,150.000,1.000
-121.057,-138.044,-122.041,-117.838,-117.034,-106.841,-114.441,-94.414,0.116,0.963,0.460,0.610,-1.526,-1.373,100.000,151.000,1.000
-120.789,-138.044,-121.862,-118.017,-117.034,-106.663,-114.352,-94.593,0.113,0.964,0.458,0.854,-1.648,-1.343,100.000,152.000,1.000
-120.789,-137.955,-121.951,-118.017,-116.944,-106.663,-114.441,-94.503,0.110,0.964,0.452,1.068,-1.892,-1.373,100.000,153.000,1.000
-120.789,-137.955,-121.772,-118.017,-116.855,-106.484,-114.620,-94.414,0.108,0.963,0.452,1.129,-2.106,-1.434,100.000,154.000,1.000
-120.789,-138.223,-122.041,-118.107,-117.034,-106.573,-114.799,-94.324,0.108,0.964,0.449,1.129,-2.258,-1.434,100.000,155.000,1.000
-120.699,-138.044,-121.951,-118.107,-116.855,-106.752,-114.530,-94.414,0.108,0.966,0.442,0.977,-2.380,-1.556,100.000,156.000,1.000
-120.789,-137.866,-121.951,-117.928,-116.676,-106.752,-114.441,-94.235,0.112,0.968,0.437,0.824,-2.167,-1.678,100.000,157.000,1.000
-120.610,-137.776,-122.130,-118.017,-116.855,-106.573,-114.620,-94.056,0.113,0.968,0.434,0.824,-2.045,-1.709,100.000,158.000,1.000
-120.610,-137.597,-122.041,-117.928,-116.766,-106.752,-114.441,-94.056,0.114,0.971,0.433,0.793,-1.892,-1.770,100.000,159.000,1.000
-120.789,-137.687,-121.951,-117.928,-116.676,-106.484,-114.352,-94.235,0.117,0.969,0.430,0.580,-1.648,-1.862,100.000,160.000,1.000
-120.789,-137.687,-121.683,-117.928,-116.676,-106.484,-114.352,-94.324,0.119,0.970,0.433,0.458,-1.404,-1.892,100.000,161.000,1.000
-120.699,-137.776,-121.593,-117.660,-116.587,-106.394,-114.262,-94.235,0.121,0.971,0.431,0.275,-1.160,-1.862,100.000,162.000,1.000
-120.789,-137.776,-121.772,-117.660,-116.676,-106.484,-114.352,-94.146,0.119,0.971,0.433,0.122,-0.763,-1.923,100.000,163.000,1.000
-120.878,-137.776,-121.862,-117.660,-116.676,-106.484,-114.441,-94.235,0.115,0.971,0.436,-0.092,-0.519,-1.770,100.000,164.000,1.000
-120.521,-137.776,-121.772,-117.749,-116.766,-106.752,-114.530,-94.235,0.114,0.972,0.436,-0.122,-0.183,-1.678,100.000,165.000,1.000
-120.431,-137.866,-121.951,-117.749,-116.587,-106.663,-114.441,-94.235,0.112,0.974,0.440,-0.092,0.000,-1.556,100.000,166.000,1.000
-120.610,-137.687,-121.951,-117.928,-116.766,-106.484,-114.530,-94.235,0.108,0.974,0.447,-0.275,-0.031,-1.373,100.000,167.000,1.000
-120.342,-137.687,-121.683,-117.749,-116.587,-106.573,-114.530,-94.235,0.108,0.970,0.451,-0.397,-0.061,-1.068,100.000,168.000,1.000
-120.610,-137.776,-121.683,-117.749,-116.497,-106.573,-114.352,-94.235,0.109,0.969,0.458,-0.549,-0.275,-1.038,100.000,169.000,1.000
-120.610,-137.776,-121.862,-117.928,-116.587,-106.484,-114.352,-94.414,0.108,0.967,0.461,-0.641,-0.519,-0.885,100.000,170.000,1.000
-120.610,-137.687,-121.772,-117.838,-116.766,-106.484,-114.530,-94.235,0.111,0.965,0.463,-0.549,-0.702,-0.916,100.000,171.000,1.000
-120.699,-137.776,-121.683,-117.749,-116.855,-106.663,-114.352,-94.146,0.112,0.965,0.462,-0.336,-0.916,-0.885,100.000,172.000,1.000
-120.699,-137.687,-121.772,-117.749,-116.766,-106.573,-114.441,-94.235,0.113,0.964,0.457,-0.031,-0.885,-0.854,100.000,173.000,1.000
-120.699,-137.776,-121.772,-117.928,-116.497,-106.663,-114.530,-94.146,0.115,0.965,0.457,0.305,-0.916,-1.038,100.000,174.000,1.000
-120.610,-137.776,-121.951,-117.838,-116.587,-106.573,-114.173,-94.235,0.114,0.967,0.453,0.427,-1.160,-0.916,100.000,175.000,1.000
-120.789,-137.597,-121.951,-117.749,-116.497,-106.663,-114.173,-94.235,0.115,0.968,0.450,0.641,-1.282,-0.977,100.000,176.000,1.000
-120.610,-137.776,-121.683,-117.749,-116.497,-106.573,-113.904,-94.414,0.114,0.969,0.450,0.549,-1.404,-0.977,100.000,177.000,1.000
-120.789,-137.776,-121.772,-117.660,-116.587,-106.752,-113.726,-94.324,0.114,0.971,0.450,0.427,-1.556,-1.221,100.000,178.000,1.000
-120.789,-137.687,-121.862,-117.570,-116.318,-106.573,-113.994,-94.414,0.119,0.971,0.451,0.305,-1.740,-1.434,100.000,179.000,1.000
-120.431,-137.419,-121.772,-117.660,-116.587,-106.484,-114.083,-94.235,0.122,0.974,0.451,0.031,-1.801,-1.526,100.000,180.000,1.000
-120.610,-137.419,-121.683,-117.660,-116.676,-106.573,-113.726,-94.235,0.125,0.974,0.451,-0.092,-1.923,-1.495,100.000,181.000,1.000
-120.610,-137.776,-121.683,-117.749,-116.587,-106.484,-113.726,-94.146,0.127,0.975,0.449,-0.153,-1.709,-1.221,100.000,182.000,1.000
-120.699,-137.776,-121.415,-117.660,-116.766,-106.573,-113.815,-94.056,0.129,0.978,0.450,-0.061,-1.465,-0.977,100.000,183.000,1.000
-120.699,-137.866,-121.504,-117.749,-116.766,-106.573,-113.457,-94.324,0.127,0.979,0.451,-0.061,-1.160,-0.916,100.000,184.000,1.000
-120.789,-137.955,-121.683,-117.481,-116.497,-106.573,-113.368,-94.146,0.123,0.979,0.449,-0.122,-0.793,-0.671,100.000,185.000,1.000
-120.789,-137.776,-121.683,-117.660,-116.766,-106.484,-113.457,-94.056,0.122,0.978,0.444,-0.183,-0.488,-0.458,100.000,186.000,1.000
-120.789,-137.776,-121.683,-117.570,-116.766,-106.394,-113.457,-94.235,0.121,0.977,0.447,-0.458,-0.305,-0.305,100.000,187.000,1.000
-120.521,-137.955,-121.683,-117.481,-116.855,-106.305,-113.279,-94.503,0.119,0.974,0.451,-0.458,-0.275,-0.214,100.000,188.000,1.000
-120.431,-138.044,-121.683,-117.749,-116.855,-106.394,-113.010,-94.235,0.117,0.969,0.450,-0.549,-0.244,-0.092,100.000,189.000,1.000
-120.789,-138.223,-121.683,-117.928,-116.855,-106.484,-112.742,-94.414,0.114,0.964,0.456,-0.458,-0.366,0.031,100.000,190.000,1.000
-120.878,-138.223,-121.683,-117.660,-116.855,-106.484,-112.474,-94.414,0.113,0.962,0.456,-0.183,-0.458,0.031,100.000,191.000,1.000
-120.610,-138.223,-121.504,-117.749,-116.766,-106.484,-112.206,-94.235,0.114,0.960,0.456,0.000,-0.519,-0.092,100.000,192.000,1.000
-120.610,-138.313,-121.504,-117.660,-116.676,-106.663,-112.385,-94.324,0.112,0.960,0.455,0.305,-0.336,-0.153,100.000,193.000,1.000
-120.699,-138.313,-121.415,-117.660,-116.855,-106.573,-112.116,-94.235,0.113,0.956,0.455,0.610,-0.366,-0.427,100.000,194.000,1.000
-120.789,-138.402,-121.504,-117.391,-116.855,-106.484,-111.848,-94.324,0.115,0.955,0.456,0.946,-0.305,-0.610,100.000,195.000,1.000
-120.431,-138.491,-121.593,-117.570,-117.123,-106.484,-111.759,-94.414,0.116,0.957,0.455,1.221,-0.397,-0.763,100.000,196.000,1.000
-120.610,-138.760,-121.504,-117.481,-117.034,-106.305,-111.669,-94.235,0.116,0.959,0.454,1.495,-0.610,-0.885,100.000,197.000,1.000
-120.789,-138.849,-121.862,-117.302,-117.123,-106.484,-111.491,-94.056,0.118,0.962,0.449,1.617,-0.732,-0.916,100.000,198.000,1.000
-120.610,-138.670,-121.683,-117.481,-117.391,-106.484,-111.312,-94.056,0.120,0.964,0.451,1.526,-0.793,-1.099,100.000,199.000,1.000
-120.431,-138.670,-121.325,-117.660,-117.391,-106.573,-111.043,-94.414,0.124,0.969,0.445,1.251,-0.824,-1.129,100.000,200.000,1.000
-120.610,-138.849,-121.683,-117.660,-117.302,-106.484,-110.865,-94.056,0.124,0.971,0.441,0.977,-0.671,-1.099,100.000,201.000,1.000
-120.610,-139.117,-121.593,-117.660,-117.570,-106.663,-110.596,-94.056,0.125,0.973,0.441,0.732,-0.458,-1.007,100.000,202.000,1.000
-120.521,-139.207,-121.504,-117.481,-117.481,-106.484,-110.596,-94.056,0.129,0.974,0.445,0.580,-0.275,-0.977,100.000,203.000,1.000
-120.521,-139.296,-121.415,-117.660,-117.481,-106.394,-110.596,-94.324,0.127,0.975,0.443,0.458,0.000,-0.732,100.000,204.000,1.000
-120.610,-139.385,-121.772,-117.391,-117.481,-106.305,-110.149,-94.414,0.126,0.976,0.445,0.214,0.061,-0.519,100.000,205.000,1.000
-120.610,-139.654,-121.683,-117.481,-117.391,-106.484,-109.881,-94.324,0.125,0.977,0.451,0.000,-0.092,-0.458,100.000,206.000,1.000
-120.342,-139.833,-121.504,-117.391,-117.481,-106.484,-109.702,-94.146,0.124,0.976,0.456,-0.366,-0.336,-0.519,100.000,207.000,1.000
-120.342,-139.833,-121.593,-117.213,-117.570,-106.573,-109.613,-94.146,0.123,0.972,0.456,-0.702,-0.610,-0.488,100.000,208.000,1.000
-120.431,-139.833,-121.683,-117.213,-117.749,-106.484,-109.255,-94.146,0.124,0.970,0.455,-0.977,-1.068,-0.519,100.000,209.000,1.000
-120.610,-140.011,-121.504,-117.302,-117.838,-106.305,-108.987,-93.967,0.122,0.968,0.457,-1.068,-1.495,-0.519,100.000,210.000,1.000
-120.610,-140.101,-121.504,-117.302,-117.928,-106.305,-108.987,-93.967,0.122,0.964,0.455,-0.793,-1.740,-0.580,100.000,211.000,1.000
-120.342,-140.101,-121.504,-117.213,-117.838,-106.394,-108.629,-94.056,0.122,0.962,0.462,-0.732,-2.014,-0.732,100.000,212.000,1.000
-120.431,-140.280,-121.325,-117.481,-118.017,-106.484,-108.361,-94.235,0.122,0.962,0.460,-0.549,-2.106,-0.885,100.000,213.000,1.000
-120.431,-140.548,-121.504,-117.123,-118.017,-106.484,-108.093,-94.235,0.119,0.962,0.458,-0.366,-2.106,-1.099,100.000,214.000,1.000
-120.521,-140.637,-121.593,-116.855,-118.196,-106.305,-107.914,-94.056,0.120,0.964,0.461,-0.458,-2.014,-1.251,100.000,215.000,1.000
-120.610,-140.727,-121.504,-116.766,-118.285,-106.394,-107.735,-94.146,0.121,0.966,0.460,-0.427,-1.831,-1.282,100.000,216.000,1.000
-120.431,-140.905,-121.415,-116.497,-118.285,-106.305,-107.646,-94.146,0.125,0.967,0.453,-0.336,-1.801,-1.190,100.000,217.000,1.000
-120.252,-140.905,-121.504,-116.587,-118.375,-106.663,-107.378,-93.967,0.127,0.968,0.451,-0.031,-1.495,-1.190,100.000,218.000,1.000
-120.342,-140.995,-120.163,-116.587,-118.285,-97.632,-101.119,-64.284,0.128,0.968,0.449,0.214,-1.129,-1.099,100.000,219.000,1.000
-120.431,-140.816,-75.281,-109.255,-98.258,-3.040,-26.464,90.659,0.128,0.967,0.447,0.549,-0.824,-0.916,100.000,220.000,1.000
-107.378,-119.895,45.508,-44.703,3.755,167.549,138.223,287.801,0.128,0.970,0.445,0.793,-0.458,-0.763,100.000,221.000,1.000
-37.014,-39.339,191.242,82.344,155.926,325.352,306.666,453.383,0.131,0.973,0.443,0.885,-0.183,-0.519,100.000,222.000,1.000
102.639,104.964,366.390,262.678,331.074,500.679,486.463,635.147,0.134,0.975,0.440,0.885,0.000,-0.275,100.000,223.000,1.000
309.527,312.388,577.480,477.702,537.872,711.590,699.431,850.976,0.133,0.971,0.441,0.671,0.061,-0.031,100.000,224.000,1.000
518.829,522.584,789.732,692.636,745.297,923.664,913.114,1067.698,0.130,0.970,0.441,0.580,0.000,-0.031,100.000,225.000,1.000
698.805,703.454,973.016,877.083,923.932,1106.590,1097.739,1254.291,0.128,0.969,0.439,0.397,0.000,0.061,100.000,226.000,1.000
883.162,888.169,1161.665,1066.536,1109.719,1295.150,1288.712,1446.963,0.126,0.968,0.439,0.275,-0.031,-0.122,100.000,227.000,1.000
1107.305,1112.312,1393.229,1296.759,1341.015,1526.088,1523.227,1681.835,0.122,0.969,0.441,0.275,-0.092,-0.122,100.000,228.000,1.000
1343.250,1347.363,1638.651,1538.784,1588.851,1770.616,1772.493,1929.760,0.120,0.968,0.444,0.214,-0.061,-0.153,100.000,229.000,1.000
1555.950,1557.827,1859.755,1756.132,1813.174,1990.736,1996.458,2151.668,0.116,0.969,0.444,0.031,-0.122,-0.122,100.000,230.000,1.000
1762.748,1761.943,2072.990,1965.881,2029.807,2202.899,2211.750,2365.172,0.117,0.969,0.448,-0.153,-0.122,-0.153,100.000,231.000,1.000
1998.872,1995.474,2314.836,2204.865,2274.424,2443.403,2455.563,2606.482,0.114,0.969,0.452,-0.397,-0.214,-0.458,100.000,232.000,1.000
2246.619,2241.254,2566.696,2454.311,2527.804,2693.654,2708.853,2857.358,0.111,0.966,0.451,-0.488,-0.549,-0.671,100.000,233.000,1.000
2464.950,2458.245,2787.084,2673.179,2748.460,2913.058,2930.135,3076.584,0.110,0.967,0.452,-0.519,-0.854,-0.793,100.000,234.000,1.000
2664.328,2657.265,2988.160,2873.004,2948.910,3112.525,3131.122,3276.587,0.112,0.967,0.452,-0.519,-1.373,-0.916,100.000,235.000,1.000
2889.991,2882.749,3214.718,3098.846,3174.663,3337.920,3357.948,3502.608,0.115,0.968,0.455,-0.519,-1.801,-1.038,100.000,236.000,1.000
3134.430,3127.456,3460.050,3343.642,3418.565,3582.448,3603.459,3747.583,0.118,0.967,0.461,-0.366,-2.167,-0.946,100.000,237.000,1.000
3346.414,3340.066,3672.660,3556.163,3630.013,3794.700,3816.158,3960.193,0.118,0.968,0.462,-0.275,-2.258,-0.793,100.000,238.000,1.000
3529.698,3523.976,3856.928,3739.805,3813.297,3978.611,4000.337,4144.729,0.117,0.970,0.459,-0.153,-2.106,-0.763,100.000,239.000,1.000
3735.871,3730.596,4063.637,3946.692,4018.486,4185.230,4206.956,4351.885,0.117,0.970,0.459,0.092,-1.770,-0.824,100.000,240.000,1.000
3966.183,3961.176,4294.396,4177.810,4248.083,4415.900,4438.252,4583.270,0.118,0.970,0.456,0.244,-1.709,-0.946,100.000,241.000,1.000
4174.233,4169.673,4503.340,4386.753,4456.312,4624.755,4647.464,4793.019,0.118,0.969,0.452,0.275,-1.801,-0.763,100.000,242.000,1.000
4354.656,4350.901,4684.836,4567.981,4636.646,4805.715,4828.960,4974.694,0.121,0.969,0.452,0.397,-1.831,-0.610,100.000,243.000,1.000
4546.703,4543.663,4877.777,4761.011,4828.871,4999.102,5022.348,5168.528,0.124,0.970,0.447,0.519,-1.862,-0.488,100.000,244.000,1.000
4763.693,4760.922,5095.572,4978.896,5046.309,5217.523,5240.858,5387.307,0.123,0.973,0.445,0.427,-1.984,-0.427,100.000,245.000,1.000
4970.045,4967.631,5302.817,5186.588,5253.375,5424.858,5448.551,5595.625,0.123,0.977,0.442,0.214,-2.014,-0.336,100.000,246.000,1.000
5142.779,5139.918,5475.999,5359.949,5426.467,5597.860,5622.090,5769.522,0.125,0.975,0.441,-0.122,-2.014,-0.305,100.000,247.000,1.000
5318.017,5315.066,5651.684,5535.723,5601.884,5773.813,5798.400,5945.654,0.128,0.972,0.442,-0.458,-1.984,-0.397,100.000,248.000,1.000
5529.554,5526.514,5864.293,5748.243,5813.957,5986.423,6011.547,6159.068,0.127,0.969,0.444,-0.671,-1.953,-0.397,100.000,249.000,1.000
5734.117,5731.345,6069.661,5953.969,6019.146,6192.417,6217.630,6365.509,0.128,0.968,0.446,-0.916,-1.892,-0.427,100.000,250.000,1.000
5901.487,5898.805,6237.746,6121.696,6187.053,6360.591,6386.430,6534.130,0.129,0.969,0.448,-0.946,-1.770,-0.488,100.000,251.000,1.000
6066.979,6064.297,6403.864,6287.993,6353.528,6526.709,6552.906,6701.053,0.128,0.972,0.450,-0.977,-1.648,-0.641,100.000,252.000,1.000
6264.390,6261.708,6602.080,6486.387,6551.565,6725.014,6751.479,6899.895,0.131,0.972,0.452,-0.977,-1.343,-0.763,100.000,253.000,1.000
6466.271,6463.052,6804.140,6688.805,6753.446,6927.521,6954.254,7102.848,0.130,0.970,0.453,-0.946,-0.916,-0.977,100.000,254.000,1.000
6639.184,6635.786,6977.589,6862.254,6926.806,7100.792,7128.329,7276.924,0.129,0.971,0.455,-0.793,-0.702,-1.129,100.000,255.000,1.000
6798.507,6795.020,7137.627,7022.203,7086.934,7261.099,7288.726,7437.409,0.131,0.968,0.460,-0.671,-0.397,-1.190,100.000,256.000,1.000
6986.262,6982.864,7326.098,7211.031,7275.404,7449.748,7477.643,7626.684,0.129,0.968,0.463,-0.580,-0.183,-1.312,100.000,257.000,1.000
7189.931,7186.354,7530.214,7414.968,7479.877,7653.953,7682.652,7831.515,0.130,0.969,0.467,-0.427,-0.061,-1.404,100.000,258.000,1.000
7362.397,7358.910,7703.574,7588.328,7652.701,7827.313,7856.460,8005.233,0.126,0.969,0.469,-0.275,-0.031,-1.465,100.000,259.000,1.000
7518.323,7514.746,7860.125,7744.969,7809.432,7983.954,8013.548,8162.231,0.125,0.968,0.466,-0.183,-0.214,-1.465,100.000,260.000,1.000
7703.306,7699.819,8045.913,7930.399,7995.041,8169.652,8199.693,8348.467,0.124,0.968,0.467,-0.031,-0.244,-1.495,100.000,261.000,1.000
7908.763,7905.097,8251.460,8136.125,8200.766,8375.467,8405.955,8554.907,0.123,0.966,0.472,0.153,-0.458,-1.404,100.000,262.000,1.000
8090.349,8086.683,8433.761,8317.979,8382.978,8557.947,8588.524,8737.655,0.122,0.968,0.472,0.305,-0.641,-1.312,100.000,263.000,1.000
8250.565,8246.722,8594.872,8479.090,8543.820,8719.326,8749.993,8899.213,0.124,0.964,0.470,0.580,-0.946,-1.160,100.000,264.000,1.000
8425.982,8421.780,8770.825,8655.132,8719.685,8895.190,8925.946,9075.524,0.124,0.965,0.471,0.732,-1.221,-1.190,100.000,265.000,1.000
8623.661,8619.995,8969.397,8853.437,8918.257,9093.495,9124.966,9274.454,0.123,0.963,0.467,1.160,-1.312,-1.190,100.000,266.000,1.000
8800.687,8796.843,9146.871,9031.268,9095.641,9270.968,9303.064,9452.553,0.123,0.963,0.464,1.556,-1.465,-1.190,100.000,267.000,1.000
8945.526,8941.503,9291.710,9176.375,9240.569,9416.164,9448.351,9597.750,0.124,0.962,0.461,1.740,-1.465,-1.221,100.000,268.000,1.000
9103.509,9099.485,9450.407,9334.894,9399.177,9574.862,9606.870,9756.895,0.122,0.962,0.457,2.045,-1.648,-1.282,100.000,269.000,1.000
9291.084,9286.882,9638.609,9523.006,9587.379,9763.063,9795.250,9945.364,0.119,0.964,0.452,2.167,-1.831,-1.343,100.000,270.000,1.000
9463.908,9459.616,9812.059,9696.545,9760.828,9936.513,9969.325,10118.993,0.118,0.965,0.450,2.411,-2.106,-1.312,100.000,271.000,1.000
9604.188,9599.449,9952.785,9836.824,9901.287,10076.972,10110.320,10259.720,0.118,0.967,0.448,2.350,-2.228,-1.556,100.000,272.000,1.000
9751.799,9747.149,10100.396,9984.614,10049.076,10225.298,10258.468,10408.135,0.119,0.968,0.447,2.228,-2.380,-1.770,100.000,273.000,1.000
9928.734,9924.443,10278.138,10161.998,10226.371,10402.771,10436.298,10586.055,0.120,0.969,0.443,2.197,-2.289,-1.923,100.000,274.000,1.000
10105.492,10101.290,10455.342,10339.471,10403.754,10580.064,10613.860,10763.617,0.119,0.971,0.440,1.831,-2.075,-2.045,100.000,275.000,1.000
10252.030,10247.292,10602.148,10485.919,10550.023,10726.603,10760.667,10910.424,0.122,0.972,0.437,1.678,-1.709,-2.014,100.000,276.000,1.000
10391.416,10386.141,10741.713,10625.215,10689.588,10866.077,10900.410,11050.435,0.120,0.976,0.435,1.526,-1.312,-1.984,100.000,277.000,1.000
10560.306,10554.763,10910.691,10794.642,10858.657,11035.504,11069.836,11219.950,0.119,0.978,0.433,1.160,-0.916,-1.923,100.000,278.000,1.000
10733.845,10728.569,11085.214,10969.164,11033.090,11209.937,11244.537,11394.205,0.123,0.977,0.434,0.885,-0.549,-1.831,100.000,279.000,1.000
10873.230,10867.955,11224.868,11108.907,11173.102,11350.037,11384.459,11534.752,0.121,0.976,0.436,0.458,-0.122,-1.862,100.000,280.000,1.000
11005.374,11000.009,11357.012,11241.051,11305.155,11482.181,11516.871,11667.254,0.118,0.974,0.435,-0.061,0.153,-1.709,100.000,281.000,1.000
11168.184,11162.372,11520.000,11403.950,11467.697,11644.901,11680.128,11830.689,0.121,0.972,0.438,-0.244,0.244,-1.617,100.000,282.000,1.000
11337.521,11331.262,11689.248,11573.197,11637.302,11814.597,11849.644,12000.474,0.120,0.969,0.443,-0.336,0.183,-1.465,100.000,283.000,1.000
11479.678,11473.688,11832.209,11716.249,11780.085,11957.558,11992.695,12143.167,0.122,0.967,0.444,-0.397,-0.031,-1.343,100.000,284.000,1.000
11608.066,11601.808,11960.866,11844.905,11908.742,12086.215,12121.888,12272.092,0.121,0.963,0.452,-0.336,-0.427,-1.282,100.000,285.000,1.000
11764.797,11758.717,12117.954,12002.083,12066.009,12243.213,12279.065,12429.716,0.121,0.961,0.452,0.000,-0.793,-1.068,100.000,286.000,1.000
11948.081,11942.180,12301.774,12185.725,12249.562,12426.855,12462.797,12614.073,0.120,0.963,0.451,0.214,-1.007,-0.946,100.000,287.000,1.000
12112.500,12105.884,12466.373,12349.965,12413.802,12591.632,12627.753,12778.761,0.119,0.965,0.454,0.519,-1.190,-0.946,100.000,288.000,1.000
12250.634,12244.107,12604.864,12488.814,12552.025,12730.303,12766.244,12917.432,0.117,0.966,0.457,0.885,-1.465,-0.946,100.000,289.000,1.000
12413.623,12407.186,12768.032,12652.161,12715.192,12893.917,12929.859,13081.046,0.116,0.968,0.455,1.038,-1.740,-0.793,100.000,290.000,1.000
12612.643,12606.206,12967.499,12851.449,12914.660,13093.474,13129.684,13280.871,0.112,0.971,0.451,1.129,-2.045,-0.824,100.000,291.000,1.000
12796.106,12789.490,13151.678,13035.002,13098.391,13276.848,13313.504,13464.870,0.110,0.972,0.448,1.282,-2.289,-0.671,100.000,292.000,1.000
12945.326,12938.442,13300.897,13184.758,13247.790,13426.426,13463.082,13614.806,0.112,0.973,0.445,1.129,-2.594,-0.702,100.000,293.000,1.000
13102.593,13095.619,13458.522,13342.383,13405.325,13583.960,13621.064,13772.698,0.111,0.975,0.447,1.007,-2.563,-0.519,100.000,294.000,1.000
13289.900,13282.838,13646.099,13529.690,13592.544,13771.357,13808.641,13960.185,0.115,0.974,0.445,0.610,-2.350,-0.488,100.000,295.000,1.000
13469.430,13462.367,13825.985,13709.309,13772.162,13951.244,13988.706,14140.430,0.113,0.973,0.444,0.336,-2.106,-0.458,100.000,296.000,1.000
13612.749,13605.687,13969.662,13852.986,13915.929,14095.101,14132.204,14284.554,0.112,0.971,0.442,-0.061,-1.587,-0.397,100.000,297.000,1.000
13755.711,13748.559,14112.803,13996.484,14059.158,14238.777,14275.792,14427.962,0.112,0.970,0.446,-0.305,-1.190,-0.488,100.000,298.000,1.000
13934.793,13927.730,14292.511,14175.835,14238.599,14418.307,14455.589,14607.581,0.112,0.970,0.446,-0.275,-0.854,-0.305,100.000,299.000,1.000
14116.558,14108.958,14474.364,14357.510,14420.005,14600.070,14637.532,14789.613,0.112,0.968,0.448,-0.153,-0.488,-0.092,100.000,300.000,1.000
14265.510,14258.089,14623.228,14506.551,14568.957,14749.291,14786.663,14938.923,0.110,0.966,0.450,0.031,-0.336,-0.061,100.000,301.000,1.000
14409.187,14401.319,14767.083,14650.586,14712.902,14893.325,14930.698,15083.137,0.110,0.964,0.451,0.061,-0.275,-0.092,100.000,302.000,1.000
14587.911,14580.133,14946.076,14829.757,14891.537,15072.229,15109.869,15262.576,0.112,0.960,0.450,0.092,-0.336,-0.153,100.000,303.000,1.000
14773.073,14765.205,15131.774,15015.366,15076.968,15257.569,15296.015,15448.454,0.114,0.958,0.450,0.153,-0.427,-0.183,100.000,304.000,1.000
14928.105,14920.326,15287.342,15170.666,15232.178,15413.049,15451.226,15604.111,0.115,0.959,0.452,0.244,-0.671,-0.214,100.000,305.000,1.000
15069.904,15061.769,15429.499,15313.271,15374.692,15555.742,15593.740,15746.626,0.116,0.959,0.452,0.275,-0.885,-0.366,100.000,306.000,1.000
15224.132,15215.816,15595.528,15479.031,15539.112,15720.161,15758.428,15911.135,0.115,0.957,0.451,0.488,-1.038,-0.427,100.000,307.000,1.000
15394.720,15386.405,15777.113,15660.616,15720.072,15901.479,15929.463,16081.724,0.115,0.958,0.450,0.671,-1.312,-0.671,100.000,308.000,1.000
15572.282,15563.342,15929.284,15812.966,15874.925,16056.332,16085.747,16238.633,0.115,0.961,0.448,0.549,-1.556,-0.702,100.000,309.000,1.000
15700.402,15691.998,16040.238,15924.367,15985.432,16166.481,16209.307,16362.818,0.115,0.963,0.443,0.793,-1.740,-0.702,100.000,310.000,1.000
15851.947,15844.079,16196.611,16080.561,16125.712,16306.939,16365.591,16519.729,0.116,0.966,0.440,0.763,-1.770,-0.732,100.000,311.000,1.000
16043.367,16034.695,16403.768,16287.091,16343.418,16525.629,16568.723,16722.324,0.117,0.968,0.439,0.702,-1.709,-0.549,100.000,312.000,1.000
16200.545,16191.962,16560.945,16444.000,16505.154,16687.725,16726.168,16879.859,0.117,0.969,0.438,0.671,-1.617,-0.397,100.000,313.000,1.000
16328.844,16319.993,16686.383,16569.617,16633.365,16815.844,16854.469,17008.605,0.119,0.972,0.434,0.488,-1.648,-0.153,100.000,314.000,1.000
16472.611,16463.313,16816.023,16698.453,16778.830,16961.398,16999.664,17153.713,0.120,0.976,0.431,0.488,-1.404,0.153,100.000,315.000,1.000
16629.699,16619.863,16985.449,16867.879,16949.686,17132.703,17172.221,17326.268,0.123,0.976,0.432,0.336,-1.190,0.275,100.000,316.000,1.000
16773.732,16763.004,17170.611,17053.756,17111.602,17295.154,17337.623,17491.314,0.124,0.974,0.432,0.122,-1.007,0.519,100.000,317.000,1.000
16941.461,16932.162,17312.320,17195.020,17254.207,17437.848,17477.902,17631.504,0.126,0.969,0.432,-0.031,-0.732,0.641,100.000,318.000,1.000
17098.281,17089.340,17460.559,17343.256,17403.605,17586.891,17626.051,17779.740,0.126,0.967,0.433,-0.275,-0.458,0.702,100.000,319.000,1.000
17279.063,17269.406,17640.980,17523.857,17584.029,17767.939,17806.385,17960.344,0.127,0.968,0.434,-0.427,-0.427,0.580,100.000,320.000,1.000
17457.250,17447.684,17819.438,17702.225,17761.949,17946.127,17984.930,18138.799,0.127,0.967,0.435,-0.549,-0.458,0.458,100.000,321.000,1.000
17607.275,17597.350,17969.283,17852.250,17911.705,18095.883,18135.223,18289.361,0.128,0.965,0.438,-0.671,-0.427,0.275,100.000,322.000,1.000
17760.160,17749.879,18122.527,18005.314,18064.592,18249.217,18288.557,18442.514,0.126,0.966,0.438,-0.671,-0.549,-0.031,100.000,323.000,1.000
17941.566,17931.375,18304.381,18186.990,18246.445,18430.893,18470.588,18624.279,0.127,0.964,0.442,-0.916,-0.488,-0.214,100.000,324.000,1.000
18122.795,18112.424,18485.787,18368.307,18427.762,18612.566,18651.549,18806.490,0.124,0.967,0.445,-1.099,-0.641,-0.549,100.000,325.000,1.000
18273.893,18263.254,18637.154,18519.941,18578.859,18763.934,18802.646,18958.035,0.124,0.969,0.443,-1.495,-0.702,-0.854,100.000,326.000,1.000
18416.943,18406.572,18780.295,18663.350,18722.000,18907.162,18945.875,19101.086,0.123,0.969,0.445,-1.526,-0.793,-1.129,100.000,327.000,1.000
18589.590,18578.592,18952.760,18835.459,18894.377,19079.719,19118.699,19273.730,0.123,0.966,0.449,-1.587,-0.885,-1.312,100.000,328.000,1.000
18775.109,18764.291,19138.816,19021.426,19080.076,19265.686,19304.846,19459.787,0.122,0.963,0.452,-1.434,-0.916,-1.465,100.000,329.000,1.000
18930.230,18919.055,19293.938,19176.725,19235.107,19420.717,19459.967,19615.266,0.117,0.967,0.452,-1.160,-1.007,-1.648,100.000,330.000,1.000
19066.039,19054.953,19430.016,19312.533,19371.186,19556.615,19595.775,19751.434,0.116,0.967,0.454,-1.038,-1.038,-1.740,100.000,331.000,1.000
19228.402,19217.227,19592.646,19475.434,19533.279,19719.514,19758.316,19914.154,0.117,0.969,0.455,-0.824,-1.038,-1.892,100.000,332.000,1.000
19410.793,19399.705,19774.768,19658.002,19715.850,19901.994,19940.797,20096.813,0.115,0.971,0.458,-0.824,-1.099,-1.709,100.000,333.000,1.000
19564.752,19553.396,19929.084,19811.961,19869.719,20055.863,20095.023,20250.859,0.115,0.970,0.457,-0.580,-0.824,-1.587,100.000,334.000,1.000
19694.570,19682.857,20059.172,19942.049,19999.717,20185.771,20225.289,20380.857,0.114,0.972,0.457,-0.336,-0.458,-1.495,100.000,335.000,1.000
19846.293,19834.850,20211.164,20094.041,20151.350,20337.854,20377.461,20533.387,0.114,0.972,0.454,-0.244,-0.061,-1.404,100.000,336.000,1.000
20020.102,20008.389,20384.881,20267.758,20325.246,20511.570,20551.268,20707.373,0.112,0.970,0.452,-0.214,0.122,-1.373,100.000,337.000,1.000
20173.881,20161.990,20538.840,20421.984,20479.205,20665.619,20705.227,20861.332,0.111,0.971,0.454,-0.336,0.244,-1.404,100.000,338.000,1.000
20302.180,20289.842,20666.961,20550.285,20607.146,20794.098,20833.793,20989.541,0.110,0.968,0.456,-0.336,0.183,-1.251,100.000,339.000,1.000
20444.783,20432.445,20809.832,20692.799,20749.752,20936.791,20976.576,21132.949,0.112,0.967,0.455,-0.092,0.000,-1.251,100.000,340.000,1.000
20624.045,20611.527,20989.451,20872.148,20928.922,21116.320,21156.016,21312.658,0.114,0.967,0.455,0.031,-0.214,-1.465,100.000,341.000,1.000
20793.650,20781.133,21159.057,21042.111,21098.617,21286.283,21325.711,21481.904,0.114,0.967,0.456,0.305,-0.519,-1.526,100.000,342.000,1.000
20929.102,20916.584,21294.775,21177.652,21234.248,21421.824,21461.520,21617.893,0.119,0.967,0.449,0.519,-0.702,-1.648,100.000,343.000,1.000
21075.281,21063.033,21441.582,21324.639,21380.695,21568.361,21608.326,21764.699,0.118,0.968,0.447,0.641,-0.824,-1.740,100.000,344.000,1.000
21256.510,21243.992,21622.631,21506.225,21561.389,21749.680,21789.287,21946.018,0.120,0.971,0.446,0.580,-0.885,-1.984,100.000,345.000,1.000
21426.920,21414.313,21793.309,21676.813,21732.244,21920.178,21959.785,22116.695,0.122,0.974,0.447,0.549,-0.946,-1.892,100.000,346.000,1.000
21561.029,21548.244,21927.510,21810.654,21866.266,22054.289,22093.984,22251.162,0.123,0.975,0.444,0.427,-0.824,-1.862,100.000,347.000,1.000
21691.922,21679.047,22058.670,21941.904,21996.799,22185.807,22225.414,22382.232,0.124,0.979,0.447,0.336,-0.793,-1.831,100.000,348.000,1.000
21851.156,21837.924,22217.992,22101.227,22156.123,22344.951,22384.916,22541.646,0.125,0.982,0.444,0.122,-0.824,-1.678,100.000,349.000,1.000
22021.654,22008.244,22388.492,22271.369,22326.354,22515.182,22555.236,22712.145,0.125,0.981,0.445,-0.031,-0.824,-1.587,100.000,350.000,1.000
22160.057,22146.377,22526.625,22409.771,22464.488,22653.674,22693.369,22850.727,0.126,0.983,0.448,-0.336,-0.519,-1.312,100.000,351.000,1.000
22281.025,22267.346,22647.771,22530.738,22585.723,22774.820,22814.695,22971.961,0.122,0.981,0.450,-0.671,-0.305,-1.190,100.000,352.000,1.000
22437.039,22423.807,22804.859,22687.111,22742.186,22931.461,22971.156,23128.514,0.119,0.981,0.456,-0.824,-0.061,-0.885,100.000,353.000,1.000
22609.326,22596.096,22977.236,22859.666,22914.473,23103.926,23143.713,23301.158,0.116,0.981,0.459,-0.916,0.000,-0.641,100.000,354.000,1.000
22754.613,22741.203,23122.256,23005.221,23059.133,23249.213,23289.088,23446.623,0.112,0.977,0.456,-0.732,0.000,-0.488,100.000,355.000,1.000
22886.846,22872.898,23254.488,23137.453,23191.188,23381.355,23421.500,23579.035,0.113,0.973,0.458,-0.580,0.092,-0.275,100.000,356.000,1.000
23047.332,23032.938,23414.615,23297.762,23351.227,23541.752,23581.359,23739.252,0.110,0.971,0.459,-0.397,0.153,-0.122,100.000,357.000,1.000
23227.398,23213.092,23595.039,23478.094,23531.738,23722.266,23761.693,23919.943,0.111,0.970,0.458,-0.305,0.031,0.000,100.000,358.000,1.000
23383.324,23369.465,23751.502,23634.199,23687.754,23878.459,23918.246,24076.496,0.114,0.969,0.462,-0.153,-0.092,0.000,100.000,359.000,1.000
23515.734,23501.787,23884.092,23766.611,23820.076,24010.514,24050.746,24208.818,0.111,0.966,0.461,0.000,-0.427,-0.092,100.000,360.000,1.000
23666.564,23652.617,24035.189,23918.066,23971.174,24161.701,24202.291,24360.006,0.110,0.965,0.456,0.122,-0.732,-0.183,100.000,361.000,1.000
23845.379,23831.342,24214.182,24097.059,24150.078,24340.961,24381.105,24538.998,0.111,0.964,0.456,0.397,-0.854,-0.275,100.000,362.000,1.000
24005.238,23990.576,24373.953,24256.918,24309.670,24501.000,24540.607,24698.680,0.111,0.963,0.454,0.610,-1.068,-0.458,100.000,363.000,1.000
24133.180,24118.248,24502.072,24384.949,24437.432,24628.852,24668.549,24827.246,0.113,0.963,0.452,1.007,-1.282,-0.641,100.000,364.000,1.000
24273.996,24259.244,24643.068,24526.033,24578.248,24769.668,24809.543,24968.152,0.117,0.963,0.451,1.099,-1.404,-0.824,100.000,365.000,1.000
24440.561,24425.988,24809.813,24692.600,24744.635,24936.322,24976.645,25134.627,0.119,0.963,0.449,1.312,-1.465,-0.916,100.000,366.000,1.000
24591.928,24576.816,24961.357,24843.965,24895.910,25087.689,25128.189,25286.352,0.122,0.967,0.444,1.526,-1.526,-1.068,100.000,367.000,1.000
24714.146,24699.215,25083.754,24966.184,25017.951,25209.998,25250.678,25409.107,0.124,0.970,0.440,1.587,-1.373,-1.068,100.000,368.000,1.000
24843.518,24828.676,25213.395,25095.646,25147.770,25339.637,25380.139,25538.568,0.126,0.977,0.438,1.587,-1.221,-1.221,100.000,369.000,1.000
25006.328,24991.486,25376.295,25258.902,25310.490,25502.537,25542.949,25701.646,0.122,0.976,0.435,1.282,-0.854,-1.221,100.000,370.000,1.000
25166.635,25151.258,25536.691,25419.209,25470.350,25662.754,25703.166,25861.953,0.119,0.976,0.440,0.824,-0.458,-1.282,100.000,371.000,1.000
25294.039,25278.840,25664.186,25546.615,25597.934,25790.428,25830.930,25989.627,0.119,0.975,0.439,0.275,-0.153,-1.190,100.000,372.000,1.000
25416.975,25401.955,25787.477,25669.729,25721.137,25913.541,25954.490,26112.918,0.116,0.976,0.442,-0.183,0.000,-1.068,100.000,373.000,1.000
25569.861,25554.840,25940.631,25823.150,25873.754,26067.053,26107.555,26266.072,0.114,0.972,0.444,-0.458,0.000,-0.793,100.000,374.000,1.000
25729.631,25714.342,26100.402,25983.189,26033.436,26227.180,26266.967,26426.289,0.113,0.972,0.447,-0.671,0.061,-0.580,100.000,375.000,1.000
25858.824,25843.625,26229.863,26112.471,26162.629,26355.838,26396.428,26555.662,0.110,0.970,0.448,-0.671,-0.122,-0.397,100.000,376.000,1.000
25980.238,25964.592,26351.188,26233.707,26283.953,26477.162,26517.574,26676.898,0.106,0.967,0.451,-0.702,-0.214,-0.305,100.000,377.000,1.000
26130.441,26114.707,26501.393,26384.270,26433.801,26627.455,26667.777,26827.012,0.106,0.964,0.457,-0.458,-0.366,-0.244,100.000,378.000,1.000
26300.674,26285.027,26671.801,26554.590,26604.389,26797.865,26838.545,26997.600,0.109,0.963,0.459,-0.122,-0.519,-0.275,100.000,379.000,1.000
26443.814,26428.525,26815.299,26697.998,26747.797,26941.721,26982.043,27141.367,0.111,0.961,0.461,0.214,-0.671,-0.397,100.000,380.000,1.000
26568.268,26552.711,26939.934,26822.541,26871.984,27065.996,27106.766,27266.268,0.114,0.961,0.462,0.610,-0.946,-0.549,100.000,381.000,1.000
26719.008,26703.451,27090.941,26973.461,27023.082,27216.826,27257.863,27417.188,0.114,0.961,0.462,0.824,-1.099,-0.732,100.000,382.000,1.000
26896.303,26880.566,27268.771,27151.471,27200.375,27394.568,27435.516,27595.107,0.113,0.964,0.460,0.885,-1.312,-1.007,100.000,383.000,1.000
27051.244,27035.420,27423.715,27306.502,27354.604,27549.242,27590.189,27750.049,0.113,0.966,0.464,0.885,-1.495,-1.221,100.000,384.000,1.000
27180.975,27164.971,27553.533,27436.143,27484.422,27678.971,27719.650,27879.689,0.117,0.968,0.461,0.977,-1.770,-1.404,100.000,385.000,1.000
27330.730,27314.369,27703.289,27585.719,27633.820,27828.906,27869.498,28029.625,0.120,0.969,0.458,0.885,-1.953,-1.526,100.000,386.000,1.000
27505.254,27488.893,27877.990,27760.779,27808.521,28003.877,28044.377,28204.684,0.120,0.971,0.457,0.885,-2.106,-1.495,100.000,387.000,1.000
27659.123,27642.314,28031.949,27914.469,27961.943,28157.209,28197.979,28358.643,0.122,0.975,0.455,0.793,-2.075,-1.526,100.000,388.000,1.000
27781.969,27765.338,28154.885,28037.672,28084.789,28280.145,28321.092,28481.488,0.125,0.979,0.448,0.488,-2.075,-1.343,100.000,389.000,1.000
27910.088,27893.549,28282.916,28165.793,28213.088,28408.621,28449.123,28609.609,0.125,0.980,0.450,0.244,-1.831,-1.099,100.000,390.000,1.000
28062.170,28045.271,28435.266,28317.783,28364.543,28560.256,28601.650,28762.047,0.125,0.981,0.446,-0.122,-1.465,-0.732,100.000,391.000,1.000
28203.701,28186.535,28576.797,28459.494,28506.164,28701.607,28743.361,28903.848,0.128,0.980,0.444,-0.397,-1.007,-0.427,100.000,392.000,1.000
28305.357,28288.637,28678.988,28561.686,28608.268,28803.979,28845.195,29006.129,0.127,0.979,0.446,-0.702,-0.671,-0.214,100.000,393.000,1.000
28410.945,28394.049,28784.668,28667.365,28713.768,28909.926,28950.785,29111.629,0.130,0.975,0.445,-1.007,-0.397,-0.031,100.000,394.000,1.000
28551.314,28534.238,28924.947,28807.734,28854.137,29050.027,29091.154,29252.445,0.127,0.969,0.438,-1.129,-0.244,0.000,100.000,395.000,1.000
28694.635,28677.379,29068.893,28951.322,28997.545,29193.793,29235.010,29395.764,0.119,0.970,0.439,-0.763,-0.275,0.122,100.000,396.000,1.000
28802.549,28785.115,29176.984,29059.326,29105.371,29301.529,29342.746,29503.678,0.120,0.967,0.438,-0.549,-0.305,0.122,100.000,397.000,1.000
28909.838,28892.135,29284.006,29166.971,29212.301,29408.549,29449.676,29611.057,0.117,0.964,0.441,-0.275,-0.549,0.275,100.000,398.000,1.000
29051.547,29033.844,29425.537,29308.145,29353.832,29550.438,29591.564,29752.766,0.115,0.960,0.438,0.031,-0.671,0.153,100.000,399.000,1.000
29201.393,29184.137,29575.473,29458.438,29503.588,29700.373,29741.590,29902.881,0.114,0.958,0.439,0.153,-0.702,-0.092,100.000,400.000,1.000
29321.824,29304.568,29696.619,29579.496,29624.377,29821.162,29862.289,30023.848,0.115,0.958,0.440,0.183,-0.732,-0.366,100.000,401.000,1.000
29432.242,29414.719,29807.125,29689.734,29734.527,29931.400,29972.887,30134.266,0.112,0.957,0.436,0.336,-0.732,-0.763,100.000,402.000,1.000
29569.482,29552.137,29944.098,29827.063,29871.945,30068.641,30110.125,30271.506,0.112,0.956,0.434,0.610,-0.946,-0.977,100.000,403.000,1.000
29729.432,29711.906,30104.314,29987.459,30031.895,30228.770,30270.344,30431.723,0.110,0.957,0.436,0.946,-1.099,-1.404,100.000,404.000,1.000
29863.631,29845.928,30238.783,30121.570,30166.006,30362.879,30404.723,30566.279,0.111,0.962,0.438,1.068,-1.190,-1.648,100.000,405.000,1.000
29979.859,29962.336,30355.012,30237.799,30281.877,30479.109,30520.861,30682.600,0.117,0.964,0.441,1.129,-1.129,-1.801,100.000,406.000,1.000
30125.146,30107.443,30500.924,30383.711,30427.162,30624.842,30666.506,30828.422,0.118,0.967,0.438,0.977,-1.068,-1.831,100.000,407.000,1.000
30294.482,30276.602,30670.172,30552.869,30596.320,30794.090,30836.021,30997.938,0.121,0.970,0.436,0.793,-0.854,-1.892,100.000,408.000,1.000
30438.338,30420.279,30814.205,30696.904,30740.178,30937.945,30979.877,31142.061,0.123,0.973,0.437,0.702,-0.519,-1.923,100.000,409.000,1.000
30558.145,30540.264,30934.189,30817.156,30859.982,31057.840,31099.594,31261.955,0.124,0.975,0.438,0.488,-0.366,-1.862,100.000,410.000,1.000
30698.334,30680.721,31074.648,30957.615,31000.352,31198.209,31240.051,31402.414,0.122,0.979,0.439,0.061,-0.061,-1.801,100.000,411.000,1.000
30866.955,30849.254,31243.180,31125.969,31168.525,31367.098,31408.584,31570.947,0.123,0.978,0.440,-0.549,0.397,-1.709,100.000,412.000,1.000
31020.557,31002.766,31397.229,31280.016,31322.305,31521.236,31562.721,31724.816,0.122,0.979,0.444,-1.038,0.824,-1.495,100.000,413.000,1.000
31139.736,31122.033,31516.855,31399.465,31441.754,31640.506,31682.080,31844.354,0.119,0.979,0.443,-1.465,1.099,-1.373,100.000,414.000,1.000
31268.215,31250.512,31645.869,31528.299,31570.320,31769.072,31810.646,31973.277,0.119,0.977,0.446,-1.740,1.160,-1.221,100.000,415.000,1.000
31430.936,31413.322,31808.322,31691.020,31732.684,31931.613,31973.457,32135.910,0.116,0.976,0.453,-1.617,0.885,-0.977,100.000,416.000,1.000
31586.861,31568.980,31964.068,31847.125,31888.699,32087.361,32129.293,32291.477,0.117,0.974,0.459,-1.556,0.488,-0.854,100.000,417.000,1.000
31710.152,31692.361,32087.809,31970.775,32011.902,32210.832,32252.854,32415.395,0.118,0.974,0.465,-1.648,0.122,-0.580,100.000,418.000,1.000
31835.680,31817.621,32213.604,32096.391,32137.607,32336.627,32378.828,32541.369,0.119,0.972,0.470,-1.678,-0.214,-0.244,100.000,419.000,1.000
31988.656,31970.238,32366.938,32249.367,32290.584,32489.514,32531.893,32694.436,0.120,0.972,0.472,-1.617,-0.641,0.000,100.000,420.000,1.000
32137.877,32119.816,32516.693,32399.480,32440.250,32639.270,32681.471,32844.371,0.120,0.970,0.473,-1.526,-0.854,0.153,100.000,421.000,1.000
32254.730,32236.492,32633.279,32516.336,32556.568,32755.678,32798.324,32961.313,0.119,0.970,0.472,-1.282,-1.282,0.458,100.000,422.000,1.000
32364.344,32345.926,32742.805,32625.770,32666.182,32865.203,32907.938,33070.926,0.120,0.965,0.476,-1.068,-1.740,0.641,100.000,423.000,1.000
32506.055,32487.814,32884.516,32767.301,32808.070,33007.180,33049.648,33212.816,0.122,0.962,0.480,-0.702,-2.289,0.854,100.000,424.000,1.000
32659.566,32641.238,33037.938,32921.262,32961.402,33160.781,33203.340,33366.598,0.122,0.959,0.482,-0.397,-2.869,0.946,100.000,425.000,1.000
32781.875,32763.457,33160.691,33043.746,33083.355,33283.180,33325.918,33489.082,0.124,0.961,0.474,-0.153,-3.387,1.007,100.000,426.000,1.000
32889.254,32871.012,33268.250,33151.125,33190.910,33390.914,33433.203,33596.551,0.124,0.960,0.470,0.244,-3.815,1.038,100.000,427.000,1.000
33024.973,33006.465,33403.789,33286.934,33326.633,33526.277,33568.836,33732.449,0.125,0.958,0.463,0.488,-4.272,0.854,100.000,428.000,1.000
33179.020,33160.156,33558.285,33440.895,33480.590,33680.414,33722.883,33886.496,0.124,0.961,0.459,0.702,-4.456,0.732,100.000,429.000,1.000
33311.344,33292.746,33690.695,33573.484,33612.914,33812.914,33855.383,34018.910,0.123,0.961,0.454,0.793,-4.395,0.671,100.000,430.000,1.000
33421.133,33402.715,33800.848,33683.723,33722.793,33922.707,33965.176,34128.969,0.121,0.964,0.447,0.763,-4.211,0.610,100.000,431.000,1.000
33548.988,33530.570,33928.965,33811.754,33850.734,34050.738,34093.566,34257.270,0.116,0.965,0.438,0.519,-3.601,0.549,100.000,432.000,1.000
33701.516,33682.563,34081.582,33964.102,34003.086,34203.355,34245.734,34409.527,0.117,0.968,0.429,0.031,-2.930,0.427,100.000,433.000,1.000
33835.984,33817.117,34216.320,34098.840,34137.910,34337.465,34380.203,34544.355,0.110,0.969,0.422,-0.397,-2.106,0.275,100.000,434.000,1.000
33941.574,33922.797,34322.000,34204.965,34243.230,34443.055,34485.973,34650.301,0.110,0.966,0.417,-0.610,-1.343,0.092,100.000,435.000,1.000
34070.406,34051.188,34450.387,34333.711,34371.441,34571.801,34614.629,34779.137,0.110,0.962,0.418,-0.610,-0.641,-0.122,100.000,436.000,1.000
34233.398,34214.621,34614.180,34496.609,34534.879,34735.328,34778.332,34942.754,0.113,0.963,0.421,-0.763,0.031,-0.366,100.000,437.000,1.000
34383.781,34364.914,34764.387,34647.082,34685.172,34885.980,34928.535,35093.223,0.111,0.964,0.428,-0.763,0.488,-0.549,100.000,438.000,1.000
34502.156,34483.289,34883.027,34765.906,34803.633,35004.531,35047.090,35211.688,0.110,0.961,0.436,-0.946,0.854,-0.824,100.000,439.000,1.000
34628.574,34609.352,35009.719,34892.504,34930.055,35131.133,35173.422,35338.109,0.112,0.959,0.442,-0.824,1.129,-1.068,100.000,440.000,1.000
34784.055,34764.473,35165.020,35047.895,35084.910,35286.164,35328.543,35493.500,0.115,0.958,0.441,-0.763,1.465,-1.190,100.000,441.000,1.000
34935.152,34916.020,35316.473,35199.438,35236.273,35437.262,35480.176,35644.953,0.117,0.956,0.444,-0.519,1.526,-1.373,100.000,442.000,1.000
35057.016,35037.613,35438.602,35321.660,35358.316,35559.301,35602.129,35766.816,0.117,0.954,0.452,-0.305,1.434,-1.587,100.000,443.000,1.000
35178.965,35159.563,35560.375,35443.340,35479.910,35681.523,35724.168,35888.766,0.119,0.950,0.457,0.061,1.160,-1.831,100.000,444.000,1.000
35338.109,35318.617,35720.145,35602.754,35638.875,35840.578,35883.582,36047.824,0.120,0.951,0.457,0.244,0.977,-2.045,100.000,445.000,1.000
35502.172,35482.770,35884.477,35767.352,35803.117,36004.906,36047.824,36212.152,0.119,0.951,0.461,0.488,0.549,-2.258,100.000,446.000,1.000
35628.414,35608.836,36010.539,35893.594,35929.270,36130.613,36173.797,36338.574,0.119,0.956,0.463,0.793,0.031,-2.380,100.000,447.000,1.000
35740.711,35721.309,36122.836,36005.801,36041.563,36242.910,36286.094,36450.691,0.120,0.961,0.468,0.610,-0.641,-2.594,100.000,448.000,1.000
35884.742,35865.074,36267.406,36150.016,36185.242,36387.211,36430.125,36594.992,0.120,0.964,0.469,0.366,-1.251,-2.686,100.000,449.000,1.000
36036.199,36016.531,36418.949,36301.469,36336.785,36538.668,36581.762,36746.805,0.118,0.969,0.463,0.183,-1.617,-2.625,100.000,450.000,1.000
36154.039,36134.547,36537.059,36419.754,36454.535,36656.684,36699.777,36864.824,0.116,0.974,0.462,0.061,-1.831,-2.502,100.000,451.000,1.000
36253.102,36233.340,36636.031,36518.906,36553.418,36755.746,36798.840,36963.887,0.115,0.976,0.459,-0.061,-1.953,-2.319,100.000,452.000,1.000
36377.555,36357.887,36760.664,36643.273,36678.051,36880.469,36923.117,37088.609,0.113,0.977,0.449,-0.275,-2.075,-1.923,100.000,453.000,1.000
36518.102,36498.254,36901.480,36784.090,36818.602,37021.016,37063.754,37229.246,0.110,0.979,0.447,-0.549,-1.923,-1.801,100.000,454.000,1.000
36629.684,36609.566,37012.793,36895.488,36930.359,37132.508,37175.512,37340.738,0.112,0.982,0.448,-1.068,-1.801,-1.495,100.000,455.000,1.000
36712.742,36692.715,37096.207,36978.551,37013.238,37215.387,37258.750,37424.063,0.110,0.980,0.451,-1.617,-1.556,-1.343,100.000,456.000,1.000
36817.258,36797.230,37201.441,37083.512,37117.754,37320.262,37363.715,37528.938,0.116,0.981,0.447,-2.014,-1.465,-1.099,100.000,457.000,1.000
36948.238,36928.301,37332.422,37214.582,37248.648,37451.152,37495.141,37660.098,0.111,0.980,0.444,-2.533,-1.038,-0.793,100.000,458.000,1.000
37054.543,37034.965,37439.086,37321.516,37355.488,37558.086,37601.359,37766.941,0.106,0.977,0.444,-2.899,-0.671,-0.763,100.000,459.000,1.000
37127.234,37107.383,37511.414,37394.203,37427.996,37630.414,37673.867,37839.629,0.104,0.974,0.443,-3.082,-0.397,-0.916,100.000,460.000,1.000
37220.215,37200.188,37604.668,37487.184,37520.801,37723.309,37766.941,37932.164,0.105,0.972,0.443,-2.930,-0.122,-0.977,100.000,461.000,1.000
37353.699,37333.672,37738.238,37620.758,37654.465,37856.973,37900.691,38066.008,0.105,0.971,0.441,-2.625,0.153,-1.129,100.000,462.000,1.000
37488.617,37468.590,37873.156,37755.586,37789.113,37991.887,38035.340,38201.012,0.104,0.973,0.441,-2.014,0.305,-1.190,100.000,463.000,1.000
37595.457,37575.430,37980.176,37862.336,37896.043,38098.906,38142.449,38308.301,0.104,0.976,0.440,-1.312,0.153,-1.221,100.000,464.000,1.000
37709.449,37689.426,38094.168,37976.332,38010.039,38212.902,38256.266,38422.293,0.108,0.979,0.441,-0.732,-0.061,-1.251,100.000,465.000,1.000
37857.867,37837.750,38242.496,38124.926,38158.273,38361.227,38404.949,38570.977,0.112,0.982,0.442,-0.488,-0.427,-1.373,100.000,466.000,1.000
38005.477,37985.539,38390.730,38273.340,38305.887,38509.020,38553.094,38718.855,0.113,0.982,0.443,-0.214,-0.946,-1.434,100.000,467.000,1.000
38120.902,38101.055,38506.516,38388.945,38421.848,38624.711,38668.520,38834.637,0.114,0.987,0.443,-0.031,-1.343,-1.343,100.000,468.000,1.000
38240.082,38220.055,38625.605,38508.215,38540.938,38743.891,38787.430,38953.727,0.116,0.990,0.446,0.336,-1.923,-1.099,100.000,469.000,1.000
38400.387,38380.359,38785.820,38668.430,38700.617,38904.020,38947.648,39113.855,0.120,0.994,0.447,0.854,-2.167,-0.854,100.000,470.000,1.000
38572.676,38552.828,38958.199,38841.164,38873.441,39076.484,39120.383,39286.770,0.118,0.996,0.453,1.221,-2.472,-0.641,100.000,471.000,1.000
38723.773,38704.371,39109.652,38992.441,39024.805,39227.762,39271.840,39438.582,0.117,0.997,0.452,1.556,-2.563,-0.397,100.000,472.000,1.000
38865.215,38845.637,39251.543,39133.973,39165.891,39369.469,39413.012,39579.754,0.118,0.996,0.456,1.862,-2.747,-0.153,100.000,473.000,1.000
39031.961,39012.469,39418.285,39300.984,39332.547,39536.570,39579.754,39746.680,0.117,0.997,0.456,2.228,-2.747,0.183,100.000,474.000,1.000
39212.383,39193.160,39599.156,39481.945,39513.414,39717.086,39760.625,39927.551,0.117,1.001,0.453,2.472,-2.625,0.427,100.000,475.000,1.000
39362.051,39342.738,39748.914,39631.789,39663.082,39866.395,39910.293,40077.484,0.118,1.004,0.450,2.563,-2.411,0.580,100.000,476.000,1.000
39488.738,39469.695,39876.051,39758.570,39789.594,39993.172,40037.160,40204.352,0.119,1.006,0.450,2.441,-2.167,0.732,100.000,477.000,1.000
39638.855,39619.363,40026.074,39908.773,39939.797,40143.645,40187.367,40354.289,0.117,1.005,0.453,2.228,-1.801,0.732,100.000,478.000,1.000
39811.051,39790.934,40198.004,40080.703,40111.637,40315.664,40359.297,40526.398,0.117,1.001,0.454,1.709,-1.587,0.702,100.000,479.000,1.000
39954.996,39934.789,40342.219,40225.008,40255.227,40459.430,40503.242,40670.520,0.115,0.996,0.456,1.160,-1.495,0.519,100.000,480.000,1.000
40065.414,40045.207,40452.637,40335.871,40365.734,40569.668,40613.836,40781.027,0.111,0.994,0.458,0.916,-1.526,0.275,100.000,481.000,1.000
40191.656,40171.719,40579.059,40462.113,40491.887,40696.359,40740.527,40907.809,0.109,0.992,0.458,0.641,-1.862,0.061,100.000,482.000,1.000
40336.496,40316.379,40724.074,40606.953,40636.992,40841.555,40885.098,41053.004,0.108,0.989,0.459,0.275,-2.167,0.000,100.000,483.000,1.000
40465.691,40445.750,40853.895,40736.594,40766.453,40971.020,41014.828,41182.555,0.111,0.984,0.464,0.244,-2.655,-0.061,100.000,484.000,1.000
40563.500,40543.922,40951.973,40834.672,40864.266,41069.098,41112.727,41280.457,0.111,0.979,0.469,0.275,-3.052,-0.305,100.000,485.000,1.000
40669.000,40648.973,41057.117,40939.637,40969.410,41174.063,41217.871,41385.598,0.114,0.973,0.471,0.519,-3.479,-0.336,100.000,486.000,1.000
40806.957,40787.109,41195.070,41077.949,41107.453,41312.105,41355.914,41523.641,0.118,0.971,0.471,0.885,-3.845,-0.366,100.000,487.000,1.000
40933.734,40913.797,41321.852,41204.461,41234.230,41438.883,41482.695,41650.602,0.121,0.968,0.467,1.221,-4.059,-0.305,100.000,488.000,1.000
41027.434,41007.316,41415.461,41298.156,41327.750,41532.672,41576.391,41744.477,0.126,0.968,0.464,1.709,-4.150,-0.488,100.000,489.000,1.000
41124.617,41104.414,41512.824,41395.789,41425.117,41629.859,41673.848,41841.840,0.130,0.967,0.460,2.045,-4.181,-0.702,100.000,490.000,1.000
41256.316,41236.199,41644.609,41527.664,41556.723,41761.375,41805.723,41973.629,0.131,0.965,0.453,2.258,-4.059,-0.793,100.000,491.000,1.000
41386.492,41366.555,41775.234,41657.664,41687.078,41891.461,41935.898,42104.074,0.131,0.962,0.449,2.350,-3.632,-0.946,100.000,492.000,1.000
41483.320,41463.023,41871.703,41754.492,41783.461,41988.113,42032.457,42200.184,0.125,0.963,0.443,2.411,-3.052,-0.977,100.000,493.000,1.000
41569.152,41549.211,41957.715,41840.500,41869.469,42074.301,42118.379,42286.641,0.119,0.963,0.441,2.289,-2.472,-1.068,100.000,494.000,1.000
41683.414,41663.563,42072.066,41955.211,41983.820,42188.742,42233.086,42401.262,0.114,0.966,0.437,2.228,-1.770,-1.068,100.000,495.000,1.000
41806.883,41787.125,42195.715,42078.859,42107.648,42312.660,42356.648,42524.645,0.110,0.963,0.436,2.075,-0.977,-0.977,100.000,496.000,1.000
41899.688,41879.660,42288.520,42171.484,42200.184,42404.926,42449.363,42617.449,0.108,0.962,0.438,1.923,-0.336,-0.854,100.000,497.000,1.000
41978.633,41958.965,42367.824,42250.699,42279.309,42484.680,42528.309,42697.020,0.104,0.963,0.440,1.862,-0.061,-0.702,100.000,498.000,1.000
42089.500,42069.918,42478.598,42361.652,42389.996,42595.184,42639.172,42807.883,0.100,0.963,0.444,1.892,0.336,-0.702,100.000,499.000,1.000
42216.992,42197.324,42606.094,42489.418,42517.578,42722.949,42766.938,42935.559,0.096,0.962,0.443,1.862,0.549,-0.732,100.000,500.000,1.000
42315.699,42295.852,42704.531,42587.941,42616.195,42821.832,42865.371,43034.531,0.094,0.962,0.445,1.892,0.519,-0.732,100.000,501.000,1.000
42398.938,42378.730,42787.945,42671.004,42699.344,42904.980,42948.789,43117.770,0.092,0.963,0.442,2.075,0.366,-0.763,100.000,502.000,1.000
42508.816,42488.703,42898.184,42781.332,42809.492,43014.863,43058.672,43227.648,0.095,0.961,0.442,2.075,0.244,-0.610,100.000,503.000,1.000
42639.352,42619.059,43028.809,42911.863,42939.848,43145.395,43189.203,43358.273,0.094,0.962,0.445,2.106,0.031,-0.427,100.000,504.000,1.000
42755.848,42735.734,43145.484,43028.539,43056.348,43262.070,43305.703,43475.039,0.094,0.966,0.449,2.319,-0.275,-0.153,100.000,505.000,1.000
42844.629,42824.961,43234.445,43118.035,43145.484,43351.121,43394.664,43564.090,0.095,0.962,0.450,2.228,-0.458,0.061,100.000,506.000,1.000
42949.059,42928.941,43338.516,43221.840,43249.824,43455.281,43499.090,43668.156,0.097,0.962,0.453,2.289,-0.671,0.366,100.000,507.000,1.000
43083.527,43063.410,43473.340,43356.484,43384.023,43589.836,43633.914,43802.895,0.098,0.961,0.455,2.350,-0.977,0.397,100.000,508.000,1.000
43205.121,43185.184,43594.844,43478.348,43505.438,43711.609,43755.418,43925.023,0.102,0.958,0.455,2.441,-1.221,0.488,100.000,509.000,1.000
43296.047,43276.734,43686.129,43569.543,43596.988,43802.984,43847.152,44016.219,0.105,0.958,0.456,2.533,-1.740,0.305,100.000,510.000,1.000
43407.895,43388.137,43797.887,43681.391,43708.480,43914.473,43958.285,44127.621,0.109,0.953,0.461,2.716,-2.167,0.397,100.000,511.000,1.000
43555.504,43535.477,43945.410,43828.824,43856.004,44062.176,44105.715,44275.320,0.113,0.949,0.464,2.930,-2.502,0.244,100.000,512.000,1.000
43699.359,43679.871,44089.535,43973.305,43999.949,44206.477,44250.199,44419.535,0.115,0.949,0.459,2.991,-2.594,0.153,100.000,513.000,1.000
43813.445,43793.773,44203.438,44087.566,44114.031,44320.203,44364.281,44533.707,0.117,0.953,0.453,3.021,-2.686,0.000,100.000,514.000,1.000
43926.188,43906.340,44316.000,44199.949,44226.953,44433.125,44477.113,44646.719,0.118,0.956,0.445,2.747,-2.502,-0.275,100.000,515.000,1.000
44068.789,44048.676,44458.516,44341.840,44369.645,44575.727,44619.270,44789.230,0.115,0.960,0.440,2.502,-2.289,-0.549,100.000,516.000,1.000
44217.652,44197.984,44607.914,44491.418,44518.328,44724.590,44767.953,44938.273,0.114,0.962,0.433,2.197,-1.953,-0.763,100.000,517.000,1.000
44333.613,44314.035,44724.234,44607.734,44634.469,44840.641,44884.363,45054.504,0.112,0.962,0.431,1.770,-1.587,-1.007,100.000,518.000,1.000
44438.758,44419.266,44829.824,44713.414,44739.344,44946.410,44990.039,45160.094,0.114,0.964,0.428,1.404,-1.160,-0.977,100.000,519.000,1.000
44576.891,44557.133,44967.867,44851.461,44877.566,45084.363,45127.996,45298.137,0.115,0.967,0.423,0.946,-0.702,-0.946,100.000,520.000,1.000
44720.566,44700.273,45110.828,44994.867,45021.152,45227.684,45271.402,45441.637,0.117,0.967,0.417,0.580,-0.214,-0.916,100.000,521.000,1.000
44829.020,44808.992,45219.547,45103.676,45129.871,45336.313,45379.945,45550.531,0.119,0.967,0.416,0.153,0.336,-1.038,100.000,522.000,1.000
44924.953,44904.926,45315.391,45199.609,45225.629,45432.070,45475.789,45646.379,0.118,0.969,0.417,-0.183,0.763,-1.038,100.000,523.000,1.000
44924.953,44904.926,45315.391,45199.609,45225.629,45432.070,45475.789,45646.379,0.118,0.969,0.417,-0.183,0.763,-1.038,100.000,524.000,0.000
44924.953,44904.926,45315.391,45199.609,45225.629,45432.070,45475.789,45646.379,0.118,0.969,0.417,-0.183,0.763,-1.038,100.000,525.000,0.000
44924.953,44904.926,45315.391,45199.609,45225.629,45432.070,45475.789,45646.379,0.118,0.969,0.417,-0.183,0.763,-1.038,100.000,526.000,0.000
44924.953,44904.926,45315.391,45199.609,45225.629,45432.070,45475.789,45646.379,0.118,0.969,0.417,-0.183,0.763,-1.038,100.000,527.000,0.000
44924.953,44904.926,45315.391,45199.609,45225.629,45432.070,45475.789,45646.379,0.118,0.969,0.417,-0.183,0.763,-1.038,100.000,528.000,0.000
44924.953,44904.926,45315.391,45199.609,45225.629,45432.070,45475.789,45646.379,0.118,0.969,0.417,-0.183,0.763,-1.038,100.000,529.000,0.000
44924.953,44904.926,45315.391,45199.609,45225.629,45432.070,45475.789,45646.379,0.118,0.969,0.417,-0.183,0.763,-1.038,100.000,530.000,0.000
44924.953,44904.926,45315.391,45199.609,45225.629,45432.070,45475.789,45646.379,0.118,0.969,0.417,-0.183,0.763,-1.038,100.000,531.000,0.000
44924.953,44904.926,45315.391,45199.609,45225.629,45432.070,45475.789,45646.379,0.118,0.969,0.417,-0.183,0.763,-1.038,100.000,532.000,0.000
44924.953,44904.926,45315.391,45199.609,45225.629,45432.070,45475.789,45646.379,0.118,0.969,0.417,-0.183,0.763,-1.038,100.000,533.000,0.000
44924.953,44904.926,45315.391,45199.609,45225.629,45432.070,45475.789,45646.379,0.118,0.969,0.417,-0.183,0.763,-1.038,100.000,534.000,0.000
44924.953,44904.926,45315.391,45199.609,45225.629,45432.070,45475.789,45646.379,0.118,0.969,0.417,-0.183,0.763,-1.038,100.000,535.000,0.000
44924.953,44904.926,45315.391,45199.609,45225.629,45432.070,45475.789,45646.379,0.118,0.969,0.417,-0.183,0.763,-1.038,100.000,536.000,0.000
44924.953,44904.926,45315.391,45199.609,45225.629,45432.070,45475.789,45646.379,0.118,0.969,0.417,-0.183,0.763,-1.038,100.000,537.000,0.000
46573.258,46552.965,46964.059,46848.363,46873.844,47080.910,47124.453,47296.203,0.121,0.967,0.457,1.190,-2.136,0.183,100.000,538.000,1.000
46657.840,46637.633,47048.547,46933.570,46957.977,47165.938,47209.211,47380.871,0.123,0.966,0.454,1.038,-1.953,0.458,100.000,539.000,1.000
46741.879,46721.496,47132.320,47017.434,47042.020,47250.250,47292.984,47464.914,0.122,0.966,0.448,0.916,-1.648,0.549,100.000,540.000,1.000
46865.711,46845.324,47256.238,47141.082,47165.938,47373.988,47416.902,47588.742,0.122,0.967,0.444,0.763,-1.404,0.610,100.000,541.000,1.000
46993.742,46973.176,47384.719,47269.383,47293.969,47502.020,47545.113,47716.953,0.123,0.965,0.438,0.763,-1.282,0.732,100.000,542.000,1.000
47092.090,47071.613,47483.066,47367.910,47392.496,47600.457,47643.551,47815.570,0.126,0.966,0.437,0.671,-1.068,0.824,100.000,543.000,1.000
47186.590,47166.207,47577.836,47462.055,47487.090,47694.691,47738.320,47910.340,0.127,0.966,0.436,0.366,-1.038,0.732,100.000,544.000,1.000
47312.387,47291.914,47703.184,47587.852,47612.617,47820.398,47863.848,48035.957,0.126,0.967,0.439,0.000,-0.671,0.763,100.000,545.000,1.000
47447.840,47427.273,47838.457,47723.750,47748.066,47956.387,47999.480,48171.766,0.126,0.965,0.440,-0.275,-0.458,0.763,100.000,546.000,1.000
47560.848,47540.645,47952.184,47837.027,47861.434,48069.664,48112.848,48285.582,0.123,0.960,0.443,-0.397,-0.275,0.702,100.000,547.000,1.000
47660.270,47639.883,48051.246,47936.270,47960.855,48169.086,48211.820,48384.734,0.120,0.959,0.446,-0.671,-0.122,0.549,100.000,548.000,1.000
47784.992,47764.695,48175.523,48061.172,48085.309,48293.898,48336.363,48509.098,0.121,0.956,0.448,-0.519,-0.061,0.427,100.000,549.000,1.000
47930.277,47910.074,48321.254,48206.457,48230.863,48439.363,48482.188,48654.742,0.121,0.956,0.450,-0.244,0.061,0.183,100.000,550.000,1.000
48046.508,48026.211,48437.574,48322.598,48347.363,48555.410,48598.684,48770.973,0.120,0.957,0.455,-0.061,0.000,-0.061,100.000,551.000,1.000
48141.547,48121.430,48532.613,48417.547,48442.133,48650.453,48693.637,48866.281,0.119,0.958,0.455,0.336,-0.031,-0.397,100.000,552.000,1.000
48260.906,48241.234,48652.328,48537.172,48561.492,48770.258,48812.816,48985.906,0.119,0.958,0.458,0.702,-0.366,-0.671,100.000,553.000,1.000
48400.738,48380.980,48791.984,48677.184,48701.414,48910.270,48952.559,49125.738,0.124,0.959,0.457,1.068,-0.610,-0.977,100.000,554.000,1.000
48522.332,48502.395,48913.488,48798.688,48822.828,49031.773,49073.973,49247.781,0.128,0.960,0.453,1.282,-0.946,-1.251,100.000,555.000,1.000
48616.031,48596.004,49007.098,48892.297,48916.168,49124.844,49167.938,49341.301,0.130,0.965,0.448,1.312,-1.312,-1.526,100.000,556.000,1.000
48721.977,48701.504,49112.773,48998.422,49022.117,49230.973,49273.707,49447.066,0.130,0.965,0.443,1.221,-1.526,-1.678,100.000,557.000,1.000
48854.121,48833.824,49245.188,49130.566,49154.527,49363.293,49406.207,49579.301,0.132,0.970,0.438,0.854,-1.526,-1.801,100.000,558.000,1.000
48978.574,48958.457,49369.820,49255.289,49279.250,49488.016,49530.754,49704.203,0.133,0.969,0.436,0.580,-1.282,-1.923,100.000,559.000,1.000
49071.559,49052.066,49462.715,49348.809,49372.234,49581.625,49623.734,49797.363,0.130,0.971,0.438,0.275,-1.007,-1.709,100.000,560.000,1.000
49167.938,49148.629,49558.914,49445.191,49468.883,49677.738,49720.207,49893.926,0.128,0.975,0.438,0.092,-0.641,-1.465,100.000,561.000,1.000
49297.223,49277.461,49688.379,49574.383,49597.988,49807.199,49849.758,50023.117,0.127,0.978,0.436,-0.031,-0.244,-1.312,100.000,562.000,1.000
49420.426,49400.844,49811.668,49697.496,49721.102,49930.582,49972.871,50146.590,0.127,0.979,0.436,-0.305,0.000,-1.221,100.000,563.000,1.000
49511.621,49491.859,49902.773,49788.781,49812.027,50021.598,50063.887,50237.695,0.125,0.977,0.436,-0.488,0.122,-1.068,100.000,564.000,1.000
49603.621,49583.684,49994.773,49880.871,49904.117,50113.148,50155.887,50329.695,0.126,0.977,0.442,-0.488,0.214,-0.854,100.000,565.000,1.000
49727.180,49707.512,50118.516,50004.254,50027.855,50237.156,50279.805,50453.613,0.127,0.976,0.446,-0.549,0.092,-0.580,100.000,566.000,1.000
49856.195,49836.168,50247.262,50132.820,50156.512,50366.172,50408.641,50582.715,0.129,0.975,0.445,-0.549,-0.061,-0.427,100.000,567.000,1.000
49955.438,49935.500,50346.414,50232.328,50255.934,50465.414,50507.883,50682.047,0.131,0.974,0.444,-0.519,-0.214,-0.458,100.000,568.000,1.000
50043.859,50024.367,50434.926,50321.020,50344.715,50554.105,50596.574,50770.379,0.132,0.972,0.450,-0.702,-0.366,-0.397,100.000,569.000,1.000
50166.168,50146.500,50557.414,50443.777,50467.203,50676.594,50718.973,50893.227,0.134,0.970,0.454,-0.763,-0.519,-0.305,100.000,570.000,1.000
50307.879,50288.387,50699.125,50585.488,50608.910,50818.391,50860.414,51035.293,0.132,0.967,0.457,-0.732,-0.671,-0.366,100.000,571.000,1.000
50417.848,50398.359,50809.184,50695.102,50718.523,50928.273,50970.027,51145.086,0.129,0.966,0.459,-0.641,-0.885,-0.305,100.000,572.000,1.000
50504.664,50484.902,50895.820,50781.469,50805.070,51014.820,51056.840,51231.633,0.125,0.963,0.461,-0.458,-1.251,-0.366,100.000,573.000,1.000
50617.137,50597.559,51008.473,50894.297,50917.813,51127.918,51169.492,51344.105,0.122,0.961,0.466,-0.122,-1.617,-0.519,100.000,574.000,1.000
50751.875,50732.473,51143.117,51029.305,51053.086,51262.477,51304.496,51479.020,0.119,0.963,0.466,0.183,-2.075,-0.519,100.000,575.000,1.000
50864.168,50844.230,51254.965,51141.508,51164.844,51373.969,51416.258,51591.047,0.117,0.964,0.461,0.763,-2.502,-0.366,100.000,576.000,1.000
50953.219,50933.281,51344.285,51230.648,51253.805,51463.465,51505.664,51680.453,0.119,0.965,0.455,1.282,-3.113,-0.366,100.000,577.000,1.000
51060.594,51041.016,51451.750,51337.938,51361.539,51571.109,51613.129,51787.563,0.119,0.971,0.453,1.740,-3.723,-0.397,100.000,578.000,1.000
51195.602,51175.750,51586.934,51472.941,51496.543,51706.203,51747.957,51922.836,0.120,0.971,0.444,1.892,-4.272,-0.488,100.000,579.000,1.000
51313.527,51293.770,51704.684,51590.957,51614.473,51824.488,51866.242,52041.211,0.122,0.972,0.443,1.678,-4.669,-0.580,100.000,580.000,1.000
51397.660,51377.992,51788.547,51675.090,51698.605,51908.262,51950.285,52125.074,0.125,0.978,0.434,1.282,-4.822,-0.580,100.000,581.000,1.000
51491.805,51471.867,51882.691,51769.145,51792.750,52002.500,52044.250,52219.398,0.128,0.980,0.428,0.702,-4.791,-0.488,100.000,582.000,1.000
51617.422,51597.754,52008.848,51895.387,51918.633,52128.383,52170.227,52345.820,0.133,0.981,0.425,0.183,-4.425,-0.488,100.000,583.000,1.000
51732.043,51712.461,52123.465,52010.098,52033.523,52243.004,52284.934,52460.441,0.135,0.982,0.428,-0.275,-3.906,-0.366,100.000,584.000,1.000
51812.867,51793.555,52204.289,52090.652,52114.078,52323.918,52365.578,52541.176,0.137,0.981,0.425,-0.763,-3.479,-0.305,100.000,585.000,1.000
51900.484,51881.172,52291.730,52178.629,52201.609,52411.535,52453.379,52628.703,0.139,0.980,0.423,-1.007,-2.869,-0.305,100.000,586.000,1.000
52016.355,51996.688,52407.512,52294.234,52317.480,52527.316,52569.160,52744.309,0.139,0.976,0.427,-1.343,-2.258,-0.244,100.000,587.000,1.000
52131.602,52112.289,52523.293,52409.566,52432.367,52642.922,52684.406,52860.000,0.140,0.973,0.433,-1.526,-1.740,-0.244,100.000,588.000,1.000
52217.613,52198.566,52609.570,52495.668,52518.375,52728.750,52770.773,52946.637,0.141,0.970,0.438,-1.556,-1.251,-0.092,100.000,589.000,1.000
52297.184,52277.961,52688.785,52575.063,52597.859,52808.414,52850.254,53026.207,0.140,0.965,0.438,-1.526,-0.885,-0.061,100.000,590.000,1.000
52409.566,52390.434,52801.172,52687.535,52710.332,52921.066,52962.551,53138.594,0.138,0.962,0.442,-1.465,-0.641,-0.061,100.000,591.000,1.000
52530.090,52510.777,52921.332,52808.234,52830.855,53041.496,53083.070,53258.934,0.137,0.960,0.447,-1.160,-0.427,-0.336,100.000,592.000,1.000
52614.309,52594.910,53005.555,52892.543,52915.254,53125.629,53167.023,53343.336,0.133,0.958,0.451,-0.824,-0.244,-0.488,100.000,593.000,1.000
52689.055,52669.922,53080.566,52967.020,52990.176,53200.730,53241.945,53418.258,0.125,0.954,0.456,-0.671,-0.244,-0.610,100.000,594.000,1.000
52795.629,52776.406,53186.781,53073.773,53096.395,53307.035,53348.789,53524.652,0.124,0.952,0.460,-0.305,-0.580,-0.885,100.000,595.000,1.000
52919.277,52900.145,53310.613,53197.512,53220.043,53430.684,53472.707,53648.301,0.119,0.952,0.462,0.061,-0.916,-1.312,100.000,596.000,1.000
53018.340,52999.207,53410.031,53297.113,53319.641,53530.105,53572.039,53748.082,0.117,0.954,0.463,0.275,-1.434,-1.587,100.000,597.000,1.000
53103.367,53083.965,53494.613,53382.047,53404.488,53614.953,53656.527,53833.105,0.117,0.957,0.464,0.458,-1.862,-1.862,100.000,598.000,1.000
53209.492,53190.539,53600.738,53488.262,53510.438,53721.168,53762.742,53939.500,0.118,0.960,0.462,0.580,-2.106,-2.228,100.000,599.000,1.000
53338.238,53319.375,53729.840,53617.188,53639.449,53850.184,53891.668,54068.605,0.117,0.963,0.457,0.763,-2.167,-2.472,100.000,600.000,1.000
53442.664,53423.711,53834.270,53721.707,53743.699,53954.609,53996.004,54172.406,0.120,0.969,0.456,0.793,-2.106,-2.594,100.000,601.000,1.000
53519.199,53500.156,53910.891,53798.418,53820.500,54031.590,54072.539,54248.938,0.122,0.971,0.455,0.885,-1.984,-2.563,100.000,602.000,1.000
53610.035,53590.813,54001.637,53888.984,53911.160,54122.160,54163.285,54340.313,0.122,0.974,0.451,0.671,-1.740,-2.502,100.000,603.000,1.000
53729.664,53710.441,54121.531,54008.434,54030.965,54241.785,54282.824,54460.117,0.124,0.975,0.451,0.671,-1.495,-2.380,100.000,604.000,1.000
53831.586,53812.363,54223.637,54110.625,54133.066,54343.711,54385.016,54562.488,0.129,0.974,0.452,0.580,-1.251,-2.136,100.000,605.000,1.000
53903.289,53884.156,54295.070,54182.242,54204.859,54415.859,54456.988,54634.461,0.131,0.973,0.453,0.427,-1.007,-1.892,100.000,606.000,1.000
53991.355,53972.313,54382.781,54269.949,54292.656,54503.746,54544.875,54722.258,0.134,0.968,0.457,0.305,-0.824,-1.526,100.000,607.000,1.000
54111.074,54091.852,54502.766,54389.934,54412.555,54623.105,54664.145,54841.707,0.133,0.968,0.454,0.275,-0.793,-1.251,100.000,608.000,1.000
54223.367,54204.234,54615.148,54502.586,54524.848,54735.758,54776.527,54954.270,0.133,0.968,0.454,0.366,-0.854,-1.007,100.000,609.000,1.000
54304.461,54285.238,54696.332,54583.500,54605.941,54816.852,54857.711,55035.453,0.133,0.967,0.455,0.488,-1.038,-0.946,100.000,610.000,1.000
54387.340,54368.652,54778.852,54666.469,54688.910,54899.730,54940.590,55118.332,0.129,0.966,0.456,0.702,-1.343,-0.916,100.000,611.000,1.000
54506.879,54488.547,54898.480,54786.273,54808.535,55019.625,55060.219,55238.406,0.128,0.961,0.460,0.732,-1.617,-0.793,100.000,612.000,1.000
54626.324,54607.727,55018.195,54905.543,54927.895,55138.984,55179.844,55357.676,0.123,0.958,0.461,0.824,-2.167,-0.732,100.000,613.000,1.000
54708.938,54690.160,55100.359,54987.617,55009.969,55221.598,55262.277,55440.020,0.121,0.956,0.458,0.916,-2.472,-0.702,100.000,614.000,1.000
54784.934,54765.621,55176.000,55063.703,55085.965,55296.699,55337.914,55515.836,0.119,0.954,0.454,1.038,-2.869,-0.793,100.000,615.000,1.000
54890.254,54871.211,55281.320,55169.113,55191.289,55402.289,55443.059,55621.246,0.117,0.954,0.448,1.160,-3.265,-1.007,100.000,616.000,1.000
55001.566,54983.328,55393.078,55280.695,55302.777,55514.227,55554.727,55733.004,0.117,0.952,0.442,1.099,-3.479,-1.465,100.000,617.000,1.000
55080.871,55062.633,55472.832,55360.266,55382.441,55593.707,55634.477,55812.934,0.115,0.952,0.439,1.099,-3.540,-1.678,100.000,618.000,1.000
55145.422,55126.914,55537.293,55424.551,55447.082,55658.352,55698.852,55877.039,0.115,0.954,0.438,1.068,-3.510,-1.923,100.000,619.000,1.000
55233.129,55214.355,55625.180,55512.258,55535.059,55746.059,55786.469,55965.105,0.114,0.958,0.432,0.702,-3.265,-2.045,100.000,620.000,1.000
55334.695,55316.012,55726.566,55614.004,55636.535,55847.625,55888.395,56066.492,0.112,0.958,0.426,0.275,-2.930,-2.136,100.000,621.000,1.000
55409.887,55391.293,55801.578,55689.195,55711.637,55922.996,55963.496,56141.594,0.111,0.959,0.420,-0.427,-2.441,-2.289,100.000,622.000,1.000
55460.223,55441.539,55852.273,55739.262,55762.152,55973.332,56013.742,56192.020,0.110,0.953,0.418,-0.885,-2.075,-2.563,100.000,623.000,1.000
55541.047,55522.539,55933.008,55819.996,55842.797,56053.977,56094.387,56272.934,0.112,0.959,0.420,-0.885,-1.678,-2.533,100.000,624.000,1.000
55654.504,55636.086,56046.285,55933.543,55956.164,56167.434,56207.578,56386.836,0.113,0.961,0.413,-1.038,-1.068,-2.289,100.000,625.000,1.000
55752.762,55734.523,56144.992,56031.891,56054.602,56265.871,56305.836,56484.918,0.112,0.969,0.413,-0.824,-0.580,-2.258,100.000,626.000,1.000
55827.508,55808.910,56219.648,56106.367,56128.898,56340.438,56380.578,56559.570,0.110,0.975,0.410,-0.916,-0.061,-2.045,100.000,627.000,1.000
55915.395,55896.887,56307.266,56194.344,56216.965,56428.410,56468.645,56647.637,0.105,0.977,0.415,-1.221,0.702,-1.923,100.000,628.000,1.000
56032.965,56014.906,56425.281,56312.453,56335.250,56546.785,56587.020,56765.746,0.102,0.972,0.418,-1.862,1.251,-1.862,100.000,629.000,1.000
56129.703,56111.555,56521.754,56409.191,56431.809,56643.438,56683.668,56862.484,0.101,0.973,0.423,-2.167,1.282,-1.770,100.000,630.000,1.000
56203.730,56185.672,56595.691,56482.949,56505.750,56717.375,56757.430,56936.422,0.102,0.973,0.429,-2.319,1.251,-1.648,100.000,631.000,1.000
56285.629,56267.926,56678.035,56565.473,56587.734,56799.449,56839.414,57018.676,0.111,0.977,0.435,-2.441,1.282,-1.526,100.000,632.000,1.000
56413.570,56395.777,56806.156,56693.594,56715.766,56927.750,56967.715,57146.797,0.109,0.980,0.447,-2.380,1.038,-1.526,100.000,633.000,1.000
56534.805,56516.836,56927.215,56814.648,56837.004,57048.629,57088.594,57268.121,0.107,0.980,0.457,-2.594,0.580,-1.404,100.000,634.000,1.000
56623.586,56605.973,57015.996,56903.254,56926.141,57137.500,57177.465,57356.902,0.107,0.977,0.460,-2.838,0.244,-1.343,100.000,635.000,1.000
56709.238,56691.270,57101.379,56988.992,57011.703,57223.238,57263.117,57442.109,0.108,0.978,0.465,-2.747,-0.183,-1.343,100.000,636.000,1.000
56827.348,56809.555,57219.574,57107.277,57129.809,57341.438,57381.223,57560.484,0.112,0.975,0.467,-2.533,-0.580,-1.160,100.000,637.000,1.000
56947.152,56929.359,57339.289,57227.086,57249.438,57460.973,57501.117,57680.379,0.116,0.976,0.465,-2.136,-1.129,-0.977,100.000,638.000,1.000
57044.246,57026.633,57436.207,57324.180,57346.801,57558.250,57598.480,57777.563,0.118,0.977,0.468,-1.709,-1.709,-0.916,100.000,639.000,1.000
57135.176,57117.918,57527.223,57415.285,57438.086,57649.711,57689.586,57868.938,0.119,0.981,0.473,-1.251,-2.197,-0.580,100.000,640.000,1.000
57250.332,57233.344,57642.738,57530.711,57553.242,57764.867,57804.652,57984.453,0.121,0.981,0.470,-0.885,-2.747,-0.458,100.000,641.000,1.000
57379.254,57361.910,57771.395,57659.367,57681.898,57893.523,57933.398,58113.020,0.115,0.981,0.468,-0.458,-3.143,-0.244,100.000,642.000,1.000
57481.625,57464.641,57874.121,57762.008,57784.625,57995.984,58036.039,58215.566,0.115,0.970,0.455,-0.244,-3.479,-0.122,100.000,643.000,1.000
57575.773,57558.785,57968.270,57856.242,57878.863,58090.129,58130.094,58309.980,0.104,0.941,0.454,-0.275,-3.510,-0.824,100.000,644.000,1.000
57704.605,57687.441,58097.016,57984.988,58007.520,58219.055,58258.840,58438.727,0.116,0.986,0.457,0.427,-3.540,-1.312,100.000,645.000,1.000
57851.949,57834.605,58244.535,58132.063,58154.859,58366.309,58405.914,58586.160,0.114,0.993,0.464,0.000,-3.296,-0.671,100.000,646.000,1.000
57980.340,57963.352,58373.016,58260.809,58283.340,58495.055,58534.484,58714.906,0.106,0.994,0.449,-0.854,-3.052,-0.519,100.000,647.000,1.000
58102.914,58086.016,58495.324,58383.473,58406.004,58617.809,58657.328,58837.660,0.103,0.985,0.437,-0.977,-2.625,-0.610,100.000,648.000,1.000
58225.852,58208.863,58618.258,58506.676,58528.852,58740.656,58779.996,58960.508,0.098,0.982,0.437,-0.427,-2.441,-0.793,100.000,649.000,1.000
58354.418,58337.699,58747.184,58635.246,58657.598,58869.402,58908.742,59089.254,0.102,0.975,0.433,-0.549,-1.801,-1.038,100.000,650.000,1.000
58468.859,58452.496,58861.445,58749.684,58772.215,58984.109,59023.449,59204.141,0.100,0.972,0.439,-0.519,-1.007,-1.160,100.000,651.000,1.000
58564.793,58548.430,58957.469,58845.707,58867.973,59080.043,59119.293,59299.895,0.105,0.979,0.435,-0.763,-0.336,-1.556,100.000,652.000,1.000
58674.582,58658.402,59067.527,58955.770,58977.852,59190.105,59229.531,59409.957,0.106,0.985,0.433,-1.068,0.336,-1.862,100.000,653.000,1.000
58805.742,58789.383,59198.418,59086.305,59108.656,59320.906,59360.066,59540.848,0.106,0.985,0.438,-1.587,1.221,-2.258,100.000,654.000,1.000
58914.820,58898.281,59307.406,59195.379,59218.090,59429.984,59468.875,59649.926,0.107,0.980,0.437,-1.953,1.678,-2.655,100.000,655.000,1.000
58985.898,58969.805,59378.664,59267.172,59289.168,59501.242,59540.223,59721.449,0.107,0.969,0.440,-2.014,2.167,-2.869,100.000,656.000,1.000
59068.422,59052.508,59461.277,59349.605,59371.691,59584.121,59622.922,59804.418,0.109,0.969,0.439,-1.770,2.716,-3.174,100.000,657.000,1.000
59185.098,59168.914,59578.043,59466.016,59488.277,59700.707,59739.152,59920.918,0.112,0.972,0.435,-1.434,3.052,-3.296,100.000,658.000,1.000
59295.156,59278.707,59688.012,59575.895,59598.336,59810.680,59849.301,60030.621,0.107,0.990,0.437,-1.160,3.387,-3.265,100.000,659.000,1.000
59375.445,59358.992,59768.391,59656.449,59678.805,59890.875,59929.770,60110.996,0.100,0.990,0.442,-1.404,3.479,-3.174,100.000,660.000,1.000
59451.441,59435.258,59844.207,59732.715,59754.887,59966.961,60005.855,60187.082,0.090,0.989,0.452,-1.465,3.326,-3.204,100.000,661.000,1.000
59548.270,59531.906,59941.035,59829.184,59851.270,60063.434,60102.324,60283.641,0.089,0.975,0.454,-1.465,2.716,-3.052,100.000,662.000,1.000
59649.211,59633.027,60042.242,59929.945,59952.566,60164.551,60203.441,60384.852,0.089,0.972,0.455,-1.221,2.411,-2.838,100.000,663.000,1.000
59719.750,59704.016,60113.051,60001.203,60023.645,60235.719,60274.523,60456.195,0.097,0.980,0.461,-0.336,1.862,-2.441,100.000,664.000,1.000
59791.992,59776.168,60184.848,60073.086,60095.797,60307.691,60346.496,60528.168,0.101,0.986,0.455,0.336,1.221,-1.831,100.000,665.000,1.000
59901.426,59885.691,60294.191,60182.609,60205.141,60417.035,60455.930,60637.691,0.099,0.977,0.458,1.251,0.488,-1.282,100.000,666.000,1.000
60022.574,60006.301,60415.516,60303.578,60325.930,60538.363,60576.984,60759.109,0.099,0.979,0.465,2.350,-0.671,-0.824,100.000,667.000,1.000
60110.102,60094.547,60503.137,60391.465,60413.906,60626.250,60664.516,60846.906,0.104,0.986,0.468,2.869,-1.801,-0.671,100.000,668.000,1.000
60183.953,60168.934,60577.164,60465.586,60488.113,60700.457,60738.633,60920.934,0.101,0.979,0.465,3.540,-3.235,-0.336,100.000,669.000,1.000
60278.098,60262.629,60671.219,60559.730,60582.082,60794.512,60832.867,61015.078,0.105,0.974,0.476,3.021,-3.265,-0.336,100.000,670.000,1.000
60392.539,60376.715,60785.484,60674.082,60696.434,60908.598,60947.309,61129.609,0.106,0.968,0.479,2.441,-3.296,-0.458,100.000,671.000,1.000
60489.547,60473.809,60882.668,60771.176,60793.887,61005.871,61044.496,61226.797,0.111,0.968,0.468,1.953,-2.869,-0.977,100.000,672.000,1.000
60566.613,60551.059,60959.738,60847.887,60870.598,61082.852,61121.117,61303.684,0.108,0.966,0.454,1.801,-2.380,-1.312,100.000,673.000,1.000
60661.922,60646.188,61055.043,60943.465,60965.816,61177.980,61216.602,61399.082,0.108,0.967,0.447,2.350,-1.770,-1.434,100.000,674.000,1.000
60776.453,60761.164,61169.934,61058.531,61080.973,61293.137,61331.582,61513.969,0.109,0.963,0.449,2.655,-1.282,-1.343,100.000,675.000,1.000
60877.570,60862.641,61270.961,61159.383,61181.914,61394.344,61432.520,61615.270,0.107,0.963,0.451,2.899,-0.854,-1.556,100.000,676.000,1.000
60939.711,60924.867,61333.457,61221.879,61244.230,61456.660,61494.836,61677.406,0.108,0.969,0.455,2.716,-0.519,-1.862,100.000,677.000,1.000
61017.672,61002.652,61410.883,61299.660,61321.836,61534.445,61572.441,61755.191,0.108,0.964,0.448,2.258,-0.427,-1.984,100.000,678.000,1.000
61123.621,61108.422,61516.922,61405.879,61427.516,61640.391,61678.570,61861.406,0.109,0.966,0.440,2.197,-0.671,-2.045,100.000,679.000,1.000
61213.297,61198.363,61606.508,61495.555,61517.547,61730.066,61768.332,61951.527,0.116,0.971,0.427,2.228,-0.763,-1.892,100.000,680.000,1.000
61270.695,61255.676,61663.637,61552.148,61574.855,61787.289,61825.465,62008.391,0.117,0.971,0.430,2.136,-0.793,-1.892,100.000,681.000,1.000
61333.367,61318.707,61726.938,61615.449,61637.977,61850.676,61888.676,62071.512,0.122,0.972,0.432,2.075,-1.007,-1.709,100.000,682.000,1.000
61433.953,61419.559,61827.520,61716.121,61738.473,61951.527,61988.902,62172.008,0.127,0.975,0.430,1.648,-0.916,-1.740,100.000,683.000,1.000
61538.648,61523.895,61932.039,61820.816,61842.988,62055.777,62093.148,62276.523,0.130,0.974,0.430,1.343,-0.732,-1.526,100.000,684.000,1.000
61610.707,61596.137,62004.277,61892.879,61915.141,62127.840,62165.480,62348.762,0.125,0.979,0.431,1.160,-0.610,-1.221,100.000,685.000,1.000
61680.715,61666.141,62074.285,61963.063,61985.324,62197.844,62235.934,62419.125,0.124,0.980,0.434,0.763,-0.519,-1.007,100.000,686.000,1.000
61788.539,61773.789,62181.930,62070.887,62093.238,62305.402,62343.398,62526.684,0.120,0.979,0.438,0.519,-0.427,-0.977,100.000,687.000,1.000
61896.273,61881.613,62289.398,62177.996,62200.527,62413.137,62450.867,62634.152,0.118,0.976,0.442,0.000,-0.183,-0.854,100.000,688.000,1.000
61969.410,61954.926,62362.621,62251.219,62273.840,62486.359,62524.359,62707.465,0.118,0.972,0.442,-0.397,0.183,-0.977,100.000,689.000,1.000
62034.230,62020.191,62427.801,62316.219,62339.375,62551.629,62589.625,62772.730,0.116,0.971,0.442,-0.397,0.366,-1.038,100.000,690.000,1.000
62130.699,62116.305,62523.910,62412.777,62435.758,62647.828,62685.559,62869.113,0.117,0.969,0.438,-0.244,0.458,-0.977,100.000,691.000,1.000
62237.453,62223.059,62630.754,62519.887,62542.688,62754.852,62792.578,62976.043,0.114,0.970,0.447,-0.031,0.336,-0.977,100.000,692.000,1.000
62313.449,62299.410,62706.750,62595.883,62618.504,62830.848,62868.664,63052.398,0.114,0.966,0.451,-0.122,0.153,-1.068,100.000,693.000,1.000
62376.836,62362.711,62770.496,62659.184,62681.895,62894.059,62932.055,63115.965,0.115,0.966,0.451,-0.031,-0.153,-1.312,100.000,694.000,1.000
62464.992,62450.957,62858.918,62747.520,62770.496,62982.660,63019.852,63203.941,0.118,0.964,0.449,-0.305,-0.427,-1.404,100.000,695.000,1.000
62576.215,62562.355,62970.230,62858.742,62881.809,63093.973,63131.254,63315.609,0.118,0.967,0.451,-0.549,-0.488,-1.373,100.000,696.000,1.000
62655.965,62642.375,63049.984,62938.402,62961.648,63173.902,63211.453,63395.539,0.117,0.969,0.450,-0.641,-0.549,-1.465,100.000,697.000,1.000
62707.016,62693.426,63100.945,62989.363,63012.609,63224.684,63262.504,63446.504,0.117,0.970,0.452,-0.641,-0.580,-1.526,100.000,698.000,1.000
62779.078,62765.758,63173.184,63061.695,63084.582,63297.016,63334.656,63518.652,0.116,0.969,0.448,-0.854,-0.519,-1.495,100.000,699.000,1.000
62878.859,62865.535,63273.055,63161.652,63184.719,63397.148,63434.523,63618.789,0.118,0.971,0.443,-0.732,-0.671,-1.404,100.000,700.000,1.000
62964.957,62951.637,63359.063,63247.660,63270.906,63483.160,63520.441,63704.531,0.116,0.970,0.441,-0.610,-0.885,-1.312,100.000,701.000,1.000
63029.152,63015.473,63423.348,63311.676,63334.922,63547.266,63584.992,63769.172,0.118,0.971,0.441,-0.519,-1.129,-1.312,100.000,702.000,1.000
63110.957,63097.547,63504.707,63393.484,63416.195,63628.715,63666.355,63850.980,0.120,0.975,0.440,-0.519,-1.465,-1.190,100.000,703.000,1.000
63224.953,63211.363,63618.699,63507.211,63530.367,63742.527,63780.168,63964.527,0.122,0.975,0.440,-0.519,-1.678,-1.190,100.000,704.000,1.000
63329.023,63315.164,63722.859,63611.102,63634.348,63846.508,63884.598,64068.598,0.122,0.975,0.440,-0.641,-1.678,-1.221,100.000,705.000,1.000
63401.621,63387.852,63795.637,63684.234,63707.035,63919.465,63957.555,64141.465,0.123,0.977,0.441,-0.610,-1.556,-1.221,100.000,706.000,1.000
63474.309,63461.164,63868.324,63757.281,63779.813,63992.242,64030.063,64214.242,0.127,0.975,0.441,-0.549,-1.312,-1.282,100.000,707.000,1.000
63583.383,63570.422,63977.758,63866.445,63889.066,64101.320,64139.227,64323.676,0.131,0.972,0.447,-0.488,-1.068,-1.251,100.000,708.000,1.000
63692.996,63680.035,64087.551,63976.238,63998.949,64211.289,64249.109,64433.375,0.134,0.969,0.453,-0.397,-0.946,-1.160,100.000,709.000,1.000
63768.457,63755.313,64163.098,64051.520,64074.496,64286.750,64324.480,64508.836,0.135,0.967,0.456,-0.275,-0.854,-1.160,100.000,710.000,1.000
63839.180,63826.305,64233.016,64122.328,64145.309,64357.293,64394.844,64579.824,0.136,0.965,0.461,-0.397,-0.793,-1.282,100.000,711.000,1.000
63943.070,63929.836,64336.637,64225.863,64248.484,64460.914,64498.555,64683.449,0.133,0.964,0.467,-0.488,-0.824,-1.495,100.000,712.000,1.000
64053.129,64040.074,64447.324,64336.102,64358.633,64571.422,64608.703,64793.508,0.131,0.962,0.465,-0.610,-0.763,-1.617,100.000,713.000,1.000
64053.129,64040.074,64447.324,64336.102,64358.633,64571.422,64608.703,64793.508,0.131,0.962,0.465,-0.610,-0.763,-1.617,100.000,714.000,0.000
64053.129,64040.074,64447.324,64336.102,64358.633,64571.422,64608.703,64793.508,0.131,0.962,0.465,-0.610,-0.763,-1.617,100.000,715.000,0.000
64285.051,64272.266,64679.871,64568.203,64591.539,64803.434,64840.805,65025.965,0.112,0.963,0.460,-0.153,-0.488,-1.923,100.000,716.000,1.000
64395.379,64382.324,64790.199,64678.441,64701.688,64913.852,64950.953,65136.207,0.107,0.965,0.457,0.122,-0.519,-2.014,100.000,717.000,1.000
64473.969,64461.629,64868.789,64757.031,64780.188,64992.262,65029.723,65214.973,0.101,0.968,0.456,0.336,-0.366,-2.106,100.000,718.000,1.000
64527.434,64515.004,64922.074,64810.227,64833.652,65045.816,65083.277,65268.707,0.096,0.969,0.453,0.427,-0.305,-2.197,100.000,719.000,1.000
64609.152,64596.457,65003.348,64892.035,64915.191,65127.441,65164.816,65350.066,0.094,0.970,0.452,0.366,-0.397,-2.289,100.000,720.000,1.000
64715.992,64703.117,65110.367,64999.145,65022.031,65234.375,65271.836,65457.176,0.100,0.969,0.452,0.214,-0.244,-2.289,100.000,721.000,1.000
64794.043,64781.438,65188.957,65077.105,65100.176,65312.605,65350.066,65535.496,0.099,0.966,0.451,0.122,-0.336,-2.228,100.000,722.000,1.000
64844.648,64832.313,65239.469,65127.891,65150.777,65363.297,65400.223,65586.188,0.102,0.966,0.450,0.122,-0.427,-2.319,100.000,723.000,1.000
64915.102,64902.762,65310.102,65198.254,65221.051,65433.930,65470.496,65656.461,0.102,0.967,0.451,0.244,-0.458,-2.319,100.000,724.000,1.000
65016.309,65004.152,65411.398,65299.641,65322.527,65535.227,65572.336,65757.852,0.097,0.968,0.445,0.305,-0.549,-2.350,100.000,725.000,1.000
65106.613,65094.543,65501.434,65389.852,65413.188,65625.531,65662.727,65848.242,0.095,0.969,0.443,0.397,-0.641,-2.228,100.000,726.000,1.000
65166.691,65154.801,65561.781,65450.203,65473.359,65685.883,65722.891,65908.773,0.093,0.971,0.440,0.549,-0.885,-2.380,100.000,727.000,1.000
65243.137,65231.422,65638.406,65526.824,65549.891,65762.500,65799.336,65985.305,0.091,0.973,0.441,0.702,-1.190,-2.197,100.000,728.000,1.000
65354.984,65343.359,65749.984,65638.672,65661.648,65874.438,65911.008,66097.063,0.097,0.972,0.446,0.641,-1.434,-2.228,100.000,729.000,1.000
65464.059,65451.992,65858.969,65747.484,65770.547,65983.156,66019.906,66205.781,0.104,0.970,0.447,0.824,-1.495,-1.984,100.000,730.000,1.000
65540.414,65528.703,65935.773,65824.195,65847.172,66059.688,66096.617,66282.578,0.109,0.971,0.444,0.671,-1.404,-2.075,100.000,731.000,1.000
65625.172,65613.641,66020.891,65909.039,65932.016,66144.539,66181.375,66367.609,0.113,0.975,0.443,0.610,-1.221,-2.075,100.000,732.000,1.000
65737.914,65726.563,66133.539,66022.227,66045.203,66257.641,66294.469,66480.711,0.112,0.977,0.445,0.549,-0.916,-2.045,100.000,733.000,1.000
65855.219,65843.859,66250.930,66139.531,66162.688,66375.117,66411.773,66598.008,0.112,0.976,0.452,0.458,-0.671,-1.953,100.000,734.000,1.000
65938.008,65926.648,66333.633,66222.234,66245.297,66457.727,66494.297,66680.531,0.109,0.976,0.451,0.427,-0.580,-1.953,100.000,735.000,1.000
66013.109,66001.758,66408.469,66297.156,66320.133,66532.563,66569.398,66755.547,0.108,0.973,0.450,0.336,-0.488,-1.862,100.000,736.000,1.000
66115.477,66104.125,66511.016,66399.703,66422.594,66634.578,66671.680,66858.008,0.107,0.975,0.447,0.305,-0.336,-1.617,100.000,737.000,1.000
66225.453,66214.008,66620.805,66509.500,66532.563,66744.102,66781.563,66967.883,0.106,0.975,0.448,0.153,-0.366,-1.343,100.000,738.000,1.000
66297.422,66286.336,66692.961,66581.555,66604.984,66816.789,66853.891,67040.125,0.105,0.972,0.447,0.061,-0.549,-1.282,100.000,739.000,1.000
66355.898,66344.813,66751.523,66640.211,66663.188,66875.258,66912.094,67098.688,0.105,0.970,0.445,-0.031,-0.732,-1.190,100.000,740.000,1.000
66446.914,66436.000,66842.719,66731.406,66754.469,66966.367,67003.469,67189.883,0.107,0.969,0.450,-0.336,-1.190,-1.099,100.000,741.000,1.000
66554.289,66543.289,66949.648,66838.336,66861.578,67073.836,67110.758,67297.352,0.107,0.965,0.455,-0.336,-1.495,-0.977,100.000,742.000,1.000
66631.000,66619.914,67026.539,66915.313,66938.203,67150.453,67187.383,67374.422,0.106,0.962,0.457,-0.427,-1.953,-1.038,100.000,743.000,1.000
66688.938,66678.031,67084.742,66973.609,66996.766,67208.836,67245.492,67432.266,0.108,0.961,0.459,-0.275,-2.289,-1.190,100.000,744.000,1.000
66765.828,66755.094,67161.273,67050.227,67073.477,67285.281,67322.023,67508.797,0.109,0.959,0.456,-0.031,-2.686,-1.251,100.000,745.000,1.000
66871.859,66861.047,67267.398,67156.359,67179.422,67391.227,67428.508,67615.195,0.111,0.957,0.453,0.397,-2.991,-1.465,100.000,746.000,1.000
66965.023,66954.031,67360.469,67249.609,67272.586,67484.656,67521.227,67708.445,0.113,0.960,0.452,0.916,-3.052,-1.678,100.000,747.000,1.000
67030.469,67019.742,67426.367,67315.414,67338.211,67550.195,67586.672,67774.430,0.114,0.960,0.451,1.251,-3.143,-1.709,100.000,748.000,1.000
67110.492,67099.758,67506.477,67395.070,67418.500,67630.656,67667.141,67854.711,0.115,0.962,0.448,1.434,-3.021,-1.831,100.000,749.000,1.000
67223.945,67213.398,67619.930,67508.617,67531.773,67744.383,67780.867,67967.906,0.115,0.964,0.442,1.282,-2.808,-1.984,100.000,750.000,1.000
67314.336,67303.789,67710.141,67598.648,67621.984,67834.422,67870.898,68057.844,0.112,0.969,0.433,1.099,-2.472,-2.136,100.000,751.000,1.000
67366.461,67356.180,67762.805,67651.313,67674.648,67886.898,67923.203,68110.414,0.106,0.974,0.428,0.885,-2.045,-2.258,100.000,752.000,1.000
67430.656,67420.195,67826.727,67715.328,67738.570,67950.734,67987.039,68174.430,0.105,0.973,0.419,0.702,-1.648,-2.380,100.000,753.000,1.000
67526.594,67516.039,67922.398,67811.352,67834.508,68046.578,68083.063,68270.547,0.102,0.976,0.416,0.488,-1.221,-2.411,100.000,754.000,1.000
67622.703,67612.961,68019.133,67908.180,67930.797,68143.141,68179.617,68367.016,0.098,0.975,0.420,0.305,-0.885,-2.289,100.000,755.000,1.000
67688.148,67678.313,68084.398,67973.445,67995.891,68208.320,68245.063,68432.555,0.100,0.977,0.421,-0.031,-0.549,-2.075,100.000,756.000,1.000
67754.039,67744.203,68150.117,68039.164,68061.867,68274.391,68310.688,68498.805,0.095,0.978,0.426,-0.275,-0.214,-1.923,100.000,757.000,1.000
67853.727,67843.898,68249.711,68138.938,68161.734,68374.078,68410.375,68598.398,0.096,0.976,0.428,-0.671,0.061,-1.892,100.000,758.000,1.000
67965.758,67955.656,68362.188,68251.234,68274.031,68486.461,68522.492,68710.336,0.095,0.974,0.430,-0.854,0.244,-1.740,100.000,759.000,1.000
68045.688,68035.672,68441.758,68330.719,68353.781,68566.305,68602.242,68790.000,0.097,0.973,0.432,-1.038,0.427,-1.709,100.000,760.000,1.000
68121.680,68111.852,68517.398,68406.711,68429.602,68642.117,68678.328,68866.445,0.098,0.973,0.439,-1.099,0.549,-1.678,100.000,761.000,1.000
68224.680,68214.664,68620.844,68509.977,68532.773,68745.211,68781.688,68969.977,0.098,0.970,0.444,-1.434,0.427,-1.526,100.000,762.000,1.000
68337.242,68327.500,68733.586,68622.359,68645.164,68857.414,68894.070,69082.273,0.102,0.969,0.451,-1.129,0.275,-1.495,100.000,763.000,1.000
68421.016,68411.180,68817.445,68706.047,68728.844,68941.547,68977.844,69166.047,0.101,0.969,0.457,-0.885,0.244,-1.678,100.000,764.000,1.000
68496.570,68486.641,68892.641,68781.328,68804.305,69017.180,69053.484,69241.508,0.101,0.969,0.461,-0.610,0.031,-1.770,100.000,765.000,1.000
68594.289,68584.633,68990.633,68879.586,68902.297,69114.992,69151.469,69339.406,0.102,0.968,0.468,-0.366,-0.519,-1.740,100.000,766.000,1.000
68717.398,68707.742,69113.742,69002.875,69025.500,69238.016,69274.586,69462.609,0.101,0.968,0.468,-0.244,-0.977,-1.862,100.000,767.000,1.000
68816.734,68806.984,69213.430,69102.297,69125.273,69337.797,69374.094,69562.117,0.103,0.968,0.469,-0.214,-1.465,-1.740,100.000,768.000,1.000
68883.250,68873.688,69279.859,69168.547,69191.617,69404.227,69440.438,69628.547,0.104,0.968,0.469,-0.122,-1.953,-1.770,100.000,769.000,1.000
68970.242,68960.945,69366.852,69255.719,69278.609,69491.133,69527.695,69715.539,0.107,0.967,0.471,0.061,-2.258,-1.617,100.000,770.000,1.000
69079.766,69070.914,69476.469,69365.602,69388.492,69600.922,69637.398,69825.422,0.109,0.969,0.468,0.122,-2.319,-1.556,100.000,771.000,1.000
69159.250,69150.578,69556.039,69444.727,69467.977,69680.586,69716.703,69905.172,0.111,0.971,0.465,0.214,-2.258,-1.556,100.000,772.000,1.000
69206.461,69197.695,69603.156,69492.203,69515.094,69727.523,69763.914,69952.203,0.112,0.976,0.463,-0.061,-2.045,-1.526,100.000,773.000,1.000
69265.469,69256.797,69661.984,69550.945,69573.742,69786.352,69822.648,70011.211,0.114,0.981,0.462,-0.122,-2.045,-1.556,100.000,774.000,1.000
69352.547,69343.875,69749.336,69638.117,69661.180,69873.883,69909.914,70098.648,0.115,0.979,0.458,-0.336,-2.045,-1.465,100.000,775.000,1.000
69428.633,69420.141,69826.141,69714.828,69737.891,69950.148,69986.531,70175.273,0.114,0.977,0.454,-0.427,-2.106,-1.343,100.000,776.000,1.000
69473.961,69465.734,69871.648,69759.977,69783.133,69995.383,70031.508,70220.422,0.113,0.975,0.454,-0.580,-1.984,-1.312,100.000,777.000,1.000
69525.641,69517.328,69923.055,69811.383,69834.539,70047.328,70083.273,70272.188,0.112,0.973,0.452,-0.610,-1.923,-1.343,100.000,778.000,1.000
69611.742,69603.250,70009.063,69897.484,69920.641,70133.164,70169.375,70358.289,0.112,0.973,0.452,-0.732,-1.923,-1.129,100.000,779.000,1.000
69701.234,69692.742,70098.828,69987.156,70010.047,70223.102,70258.953,70448.141,0.115,0.975,0.448,-0.854,-1.831,-1.007,100.000,780.000,1.000
69761.406,69752.820,70158.461,70047.328,70069.953,70283.008,70318.680,70507.867,0.114,0.974,0.444,-0.793,-1.709,-0.854,100.000,781.000,1.000
69826.141,69818.094,70223.281,70112.508,70134.773,70347.563,70383.234,70572.594,0.113,0.975,0.441,-0.641,-1.587,-0.702,100.000,782.000,1.000
69930.836,69922.875,70327.977,70216.938,70239.469,70452.078,70487.930,70677.203,0.114,0.975,0.446,-0.488,-1.404,-0.458,100.000,783.000,1.000
70042.500,70034.547,70439.828,70328.602,70351.406,70563.922,70600.047,70788.781,0.115,0.973,0.446,-0.366,-1.282,-0.427,100.000,784.000,1.000
70124.758,70116.797,70521.992,70411.219,70434.016,70646.359,70682.297,70871.484,0.114,0.974,0.448,-0.244,-1.343,-0.488,100.000,785.000,1.000
70200.305,70192.352,70597.453,70486.586,70509.477,70721.906,70757.938,70946.945,0.113,0.973,0.443,-0.183,-1.251,-0.397,100.000,786.000,1.000
70306.344,70298.922,70703.758,70592.711,70615.602,70828.031,70864.156,71052.977,0.109,0.973,0.439,0.031,-1.221,-0.336,100.000,787.000,1.000
70429.367,70421.766,70826.602,70715.648,70738.445,70951.055,70987.086,71175.914,0.105,0.973,0.440,0.183,-1.190,-0.244,100.000,788.000,1.000
70522.883,70515.109,70920.477,70808.633,70831.969,71044.484,71080.336,71269.344,0.106,0.973,0.440,0.336,-1.312,-0.092,100.000,789.000,1.000
70597.359,70589.406,70994.773,70883.109,70906.445,71118.875,71154.281,71344.000,0.112,0.970,0.446,0.427,-1.160,0.000,100.000,790.000,1.000
70697.320,70689.453,71094.734,70983.242,71006.313,71219.008,71254.328,71443.867,0.112,0.969,0.448,0.244,-0.946,-0.031,100.000,791.000,1.000
70816.766,70809.258,71214.359,71103.141,71126.023,71338.633,71374.133,71563.672,0.110,0.970,0.457,0.031,-0.671,-0.122,100.000,792.000,1.000
70901.617,70894.906,71299.656,71188.609,71210.961,71424.109,71459.961,71649.055,0.106,0.968,0.455,-0.092,-0.488,-0.244,100.000,793.000,1.000
70962.234,70955.258,71360.094,71249.047,71271.398,71484.547,71520.672,71709.492,0.103,0.967,0.457,-0.153,-0.427,-0.519,100.000,794.000,1.000
71042.430,71034.828,71440.023,71328.711,71351.328,71564.391,71600.508,71789.875,0.100,0.962,0.461,0.092,-0.458,-0.916,100.000,795.000,1.000
71148.734,71141.406,71546.508,71435.281,71457.727,71670.516,71706.813,71896.445,0.104,0.957,0.465,0.275,-0.732,-1.190,100.000,796.000,1.000
71243.867,71236.625,71641.461,71530.680,71553.125,71766.000,71801.672,71991.398,0.105,0.958,0.462,0.641,-1.129,-1.587,100.000,797.000,1.000
71311.813,71304.391,71709.586,71598.539,71620.891,71834.039,71870.070,72059.344,0.104,0.957,0.458,0.702,-1.526,-1.953,100.000,798.000,1.000
71388.883,71381.820,71786.922,71676.055,71698.406,71911.375,71947.500,72137.039,0.106,0.960,0.458,0.824,-1.892,-2.380,100.000,799.000,1.000
71497.688,71490.898,71895.375,71785.227,71807.484,72019.914,72056.219,72246.203,0.108,0.961,0.455,0.732,-2.106,-2.808,100.000,800.000,1.000
71600.953,71594.336,71998.727,71888.133,71910.750,72122.914,72158.945,72349.117,0.109,0.963,0.455,0.641,-2.289,-3.082,100.000,801.000,1.000
71664.969,71658.352,72063.281,71952.234,71974.766,72187.109,72223.047,72413.039,0.114,0.963,0.450,0.488,-2.258,-3.113,100.000,802.000,1.000
71732.828,71726.219,72130.867,72019.648,72042.266,72255.055,72290.734,72480.813,0.114,0.965,0.449,0.305,-2.258,-3.052,100.000,803.000,1.000
71832.070,71825.547,72229.938,72118.805,72141.688,72354.391,72389.969,72579.961,0.110,0.969,0.452,0.397,-2.380,-3.052,100.000,804.000,1.000
71927.563,71920.852,72325.602,72214.469,72237.086,72449.961,72485.820,72675.625,0.110,0.972,0.446,0.458,-2.319,-2.899,100.000,805.000,1.000
71992.203,71985.492,72390.063,72279.195,72301.906,72514.781,72550.547,72740.266,0.108,0.975,0.440,0.580,-1.892,-2.777,100.000,806.000,1.000
72049.508,72042.891,72447.195,72336.688,72359.219,72572.008,72607.500,72797.492,0.107,0.978,0.439,0.519,-1.465,-2.441,100.000,807.000,1.000
72129.711,72123.359,72527.750,72416.883,72439.594,72652.563,72687.789,72877.953,0.107,0.978,0.437,0.427,-0.946,-2.258,100.000,808.000,1.000
72215.898,72209.727,72614.297,72503.070,72525.961,72738.836,72774.422,72964.594,0.109,0.978,0.438,0.031,-0.549,-2.014,100.000,809.000,1.000
72280.719,72274.906,72679.203,72568.070,72590.688,72803.836,72839.422,73029.680,0.108,0.979,0.439,-0.183,-0.153,-1.495,100.000,810.000,1.000
72337.047,72331.234,72735.266,72624.484,72646.836,72859.898,72895.391,73085.563,0.105,0.978,0.438,-0.336,0.061,-1.007,100.000,811.000,1.000
72425.734,72420.102,72824.219,72713.445,72735.617,72948.766,72984.352,73174.789,0.102,0.978,0.439,-0.183,0.122,-0.732,100.000,812.000,1.000
72534.719,72529.086,72933.211,72822.438,72844.609,73057.305,73093.336,73283.867,0.105,0.977,0.443,-0.122,-0.061,-0.641,100.000,813.000,1.000
72613.758,72608.039,73012.336,72901.914,72924.180,73136.875,73172.281,73363.164,0.103,0.971,0.445,-0.214,-0.122,-0.702,100.000,814.000,1.000
72673.484,72667.852,73072.414,72961.461,72983.727,73196.867,73232.367,73423.156,0.103,0.970,0.446,-0.427,-0.397,-0.702,100.000,815.000,1.000
72764.586,72759.227,73163.523,73052.477,73074.648,73287.617,73323.383,73514.172,0.102,0.968,0.441,-0.427,-0.763,-0.763,100.000,816.000,1.000
72876.797,72871.336,73275.547,73164.508,73186.766,73399.820,73435.227,73626.289,0.100,0.965,0.446,-0.153,-1.221,-0.793,100.000,817.000,1.000
72960.750,72955.383,73359.414,73248.281,73270.992,73483.781,73519.180,73710.156,0.099,0.964,0.447,0.061,-1.648,-0.916,100.000,818.000,1.000
73015.109,73009.563,73413.594,73302.461,73325.352,73538.047,73573.633,73764.156,0.100,0.962,0.448,0.214,-2.014,-0.916,100.000,819.000,1.000
73091.641,73086.008,73490.125,73379.258,73401.789,73614.672,73650.430,73840.781,0.102,0.965,0.447,0.397,-2.075,-1.007,100.000,820.000,1.000
73202.773,73196.602,73600.813,73489.859,73512.477,73725.266,73760.852,73951.734,0.101,0.965,0.443,0.427,-2.228,-1.007,100.000,821.000,1.000
73294.148,73288.156,73692.633,73581.320,73604.031,73816.906,73852.406,74043.641,0.098,0.966,0.438,0.549,-2.350,-1.190,100.000,822.000,1.000
73345.195,73340.008,73743.594,73632.641,73655.078,73868.406,73903.898,74095.141,0.099,0.968,0.433,0.610,-2.289,-1.190,100.000,823.000,1.000
73406.438,73401.258,73805.109,73693.797,73716.414,73929.922,73965.234,74156.211,0.098,0.970,0.430,0.671,-2.319,-1.099,100.000,824.000,1.000
73501.305,73495.938,73899.875,73788.836,73811.367,74024.688,74059.914,74250.891,0.099,0.972,0.430,0.610,-2.258,-0.916,100.000,825.000,1.000
73589.906,73584.453,73988.750,73877.703,73900.328,74113.109,74148.430,74340.031,0.101,0.972,0.430,0.549,-2.289,-0.977,100.000,826.000,1.000
73647.750,73642.383,74046.688,73935.375,73958.711,74170.688,74206.367,74397.781,0.100,0.971,0.428,0.366,-2.075,-0.916,100.000,827.000,1.000
73705.328,73700.586,74104.172,73993.039,74016.109,74228.359,74263.945,74455.273,0.099,0.969,0.427,0.031,-1.862,-0.793,100.000,828.000,1.000
73794.914,73790.266,74193.844,74082.711,74105.336,74318.211,74353.438,74544.773,0.100,0.972,0.427,-0.214,-1.556,-0.732,100.000,829.000,1.000
73885.125,73880.211,74284.148,74172.750,74195.188,74408.070,74443.297,74634.891,0.100,0.972,0.428,-0.336,-1.190,-0.793,100.000,830.000,1.000
73941.008,73936.359,74340.203,74228.898,74251.336,74464.039,74499.797,74691.133,0.100,0.975,0.429,-0.580,-0.793,-0.854,100.000,831.000,1.000
73998.852,73994.023,74397.695,74286.648,74308.734,74521.969,74557.555,74748.617,0.099,0.975,0.434,-0.793,-0.488,-0.946,100.000,832.000,1.000
74098.180,74093.711,74497.117,74385.805,74408.156,74621.211,74656.711,74848.125,0.101,0.972,0.436,-1.038,-0.183,-1.007,100.000,833.000,1.000
74210.211,74205.469,74608.789,74497.477,74520.273,74733.422,74768.555,74960.156,0.099,0.975,0.443,-1.129,-0.061,-1.007,100.000,834.000,1.000
74286.742,74282.180,74685.320,74574.273,74596.805,74810.039,74845.359,75036.508,0.097,0.972,0.450,-1.221,0.061,-1.129,100.000,835.000,1.000
74352.727,74347.984,74751.297,74640.438,74662.969,74876.023,74911.250,75102.578,0.096,0.972,0.455,-1.343,-0.031,-1.068,100.000,836.000,1.000
74447.672,74442.844,74846.695,74735.383,74758.273,74970.797,75006.289,75197.977,0.097,0.970,0.458,-1.434,-0.153,-1.099,100.000,837.000,1.000
74561.039,74556.391,74960.516,74848.750,74871.555,75084.523,75120.016,75311.883,0.099,0.969,0.463,-1.343,-0.427,-1.251,100.000,838.000,1.000
74646.250,74641.953,75046.078,74934.313,74957.023,75169.906,75205.578,75397.180,0.100,0.969,0.462,-1.221,-0.641,-1.190,100.000,839.000,1.000
74702.570,74698.461,75102.133,74990.641,75013.266,75226.320,75262.086,75453.680,0.100,0.967,0.462,-0.763,-0.793,-1.404,100.000,840.000,1.000
74780.539,74775.891,75179.914,75068.250,75091.133,75304.281,75339.688,75531.289,0.098,0.968,0.463,-0.397,-1.160,-1.373,100.000,841.000,1.000
74893.188,74888.805,75292.656,75181.078,75203.875,75416.938,75452.070,75644.297,0.096,0.967,0.464,0.122,-1.526,-1.343,100.000,842.000,1.000
74978.219,74974.367,75377.773,75266.195,75288.813,75501.875,75537.273,75729.859,0.096,0.969,0.461,0.488,-1.892,-1.282,100.000,843.000,1.000
75035.797,75032.039,75435.445,75324.039,75346.750,75559.898,75595.031,75787.523,0.098,0.970,0.458,0.793,-2.075,-1.282,100.000,844.000,1.000
75112.859,75109.109,75512.422,75401.109,75423.555,75636.875,75672.281,75864.414,0.098,0.971,0.454,0.885,-2.350,-1.434,100.000,845.000,1.000
75222.477,75218.898,75622.570,75510.992,75533.344,75746.938,75782.344,75974.570,0.100,0.973,0.450,0.916,-2.380,-1.434,100.000,846.000,1.000
75311.438,75308.125,75711.711,75600.133,75622.570,75835.898,75871.305,76063.883,0.104,0.976,0.446,1.007,-2.319,-1.373,100.000,847.000,1.000
75367.852,75363.914,75767.586,75655.828,75678.633,75891.867,75927.000,76119.586,0.107,0.977,0.441,1.007,-2.411,-1.221,100.000,848.000,1.000
75426.945,75423.727,75827.047,75715.641,75738.086,75951.320,75986.281,76178.500,0.112,0.977,0.441,0.824,-2.197,-1.190,100.000,849.000,1.000
75519.305,75515.461,75918.953,75808.359,75830.531,76043.680,76078.547,76270.773,0.113,0.979,0.437,0.641,-1.831,-1.190,100.000,850.000,1.000
75608.531,75604.867,76008.359,75897.500,75919.852,76132.820,76167.953,76360.445,0.112,0.979,0.437,0.397,-1.404,-1.099,100.000,851.000,1.000
75666.828,75663.523,76067.102,75955.883,75978.055,76191.375,76226.516,76418.828,0.111,0.979,0.436,0.153,-1.038,-1.129,100.000,852.000,1.000
75722.172,75718.859,76122.266,76011.133,76033.125,76246.633,76282.039,76473.727,0.108,0.979,0.433,-0.061,-0.824,-1.068,100.000,853.000,1.000
75811.664,75808.180,76211.586,76100.359,76122.445,76336.039,76371.266,76563.313,0.104,0.985,0.428,-0.336,-0.458,-0.732,100.000,854.000,1.000
75901.969,75898.211,76302.156,76190.570,76212.750,76426.516,76461.477,76653.789,0.100,0.983,0.433,-0.732,-0.183,-0.641,100.000,855.000,1.000
75961.781,75958.648,76362.328,76250.656,76272.563,76486.242,76521.469,76713.781,0.095,0.981,0.438,-1.038,0.061,-0.610,100.000,856.000,1.000
76014.352,76011.492,76414.625,76303.586,76325.492,76539.086,76573.859,76766.531,0.095,0.979,0.443,-1.373,0.061,-0.488,100.000,857.000,1.000
76096.430,76093.656,76496.883,76385.484,76407.563,76621.250,76656.117,76848.523,0.093,0.977,0.444,-1.556,0.000,-0.519,100.000,858.000,1.000
76189.320,76186.641,76589.867,76478.195,76500.547,76714.406,76749.281,76941.320,0.093,0.972,0.452,-1.648,-0.092,-0.488,100.000,859.000,1.000
76252.805,76250.211,76653.344,76541.766,76563.938,76777.711,76812.578,77004.891,0.091,0.969,0.453,-1.465,-0.427,-0.519,100.000,860.000,1.000
76300.094,76297.055,76700.375,76588.703,76610.969,76824.828,76859.516,77052.188,0.091,0.968,0.458,-1.190,-0.671,-0.580,100.000,861.000,1.000
76375.289,76372.609,76775.922,76664.344,76686.516,76900.016,76934.797,77127.828,0.094,0.965,0.459,-0.763,-0.916,-0.580,100.000,862.000,1.000
76475.070,76473.008,76876.234,76764.570,76786.563,77000.336,77035.289,77228.234,0.094,0.965,0.458,-0.305,-1.068,-0.793,100.000,863.000,1.000
76557.586,76555.352,76958.313,76846.914,76868.813,77082.945,77117.727,77310.484,0.096,0.964,0.455,0.122,-1.099,-0.854,100.000,864.000,1.000
76617.227,76614.813,77017.945,76906.633,76928.539,77142.492,77177.094,77370.211,0.098,0.961,0.455,0.488,-1.129,-1.190,100.000,865.000,1.000
76706.539,76703.945,77107.172,76995.859,77017.945,77231.805,77266.406,77459.703,0.097,0.964,0.450,0.824,-1.068,-1.343,100.000,866.000,1.000
76822.500,76820.266,77223.406,77111.914,77133.820,77347.766,77382.727,77575.938,0.098,0.968,0.447,1.068,-1.129,-1.465,100.000,867.000,1.000
76919.148,76916.734,77320.055,77208.742,77230.109,77443.969,77479.195,77672.492,0.101,0.968,0.443,0.977,-0.946,-1.740,100.000,868.000,1.000
76985.578,76983.438,77386.125,77275.172,77296.539,77510.398,77545.266,77738.742,0.106,0.970,0.442,0.763,-0.854,-1.862,100.000,869.000,1.000
77065.508,77062.914,77466.234,77354.922,77376.375,77590.602,77625.375,77818.320,0.108,0.975,0.438,0.488,-0.519,-1.984,100.000,870.000,1.000
77173.602,77171.008,77574.328,77463.016,77484.563,77698.688,77733.383,77926.766,0.111,0.977,0.437,0.336,0.000,-1.923,100.000,871.000,1.000
77271.234,77268.734,77671.867,77560.469,77582.195,77796.055,77830.922,78024.672,0.114,0.981,0.435,0.092,0.336,-1.892,100.000,872.000,1.000
