EEG 1,EEG 2,EEG 3,EEG 4,EEG 5,EEG 6,EEG 7,EEG 8,Accelerometer X,Accelerometer Y,Accelerometer Z,Gyroscope X,Gyroscope Y,Gyroscope Z,Battery Level,Counter,Validation Indicator
84134.297,175601.484,33454.574,190427.219,-6827.654,-232333.344,104484.039,578567.438,0.016,0.983,0.260,0.000,0.000,0.000,26.667,1.000,1.000
-19.044,8335.949,7813.723,-21.726,-44.972,-1895.607,1112.044,44931.656,0.023,0.993,0.250,0.000,0.000,0.000,26.667,2.000,1.000
-1353.711,-76.085,-1435.608,0.000,0.000,-86.814,0.000,1824.707,0.026,0.996,0.244,0.000,0.000,0.000,26.667,3.000,1.000
-1676.113,-1940.757,-16818.705,0.000,0.000,-1.341,0.000,0.715,0.027,0.994,0.244,0.000,0.000,0.000,26.667,4.000,1.000
-2104.730,-3792.912,-23859.684,0.000,0.000,-1.341,-1.878,-102.282,0.031,0.994,0.249,0.000,0.000,0.000,26.667,5.000,1.000
-1592.696,-3131.927,-8284.094,-0.089,0.000,-282.973,-365.138,-388.563,0.033,0.989,0.246,2.350,3.143,2.106,26.667,6.000,1.000
-1203.597,-2565.623,-318.378,-88.334,0.000,-1313.120,-1713.664,-515.252,0.036,0.983,0.241,4.211,1.923,1.953,26.667,7.000,1.000
-983.566,-2140.045,-805.736,-724.375,38.534,-1346.022,-1767.844,-546.277,0.037,0.980,0.239,3.632,-0.397,0.610,26.667,8.000,1.000
-857.592,-1756.579,-945.211,-1223.624,76.085,-1018.524,-1325.995,-508.368,0.039,0.978,0.237,3.723,-1.251,0.061,26.667,9.000,1.000
-735.730,-1368.195,-746.191,-1020.581,-899.345,-733.942,-950.307,-382.125,0.042,0.976,0.240,3.845,-1.221,0.092,26.667,10.000,1.000
-610.292,-1036.585,-553.966,-814.229,-970.692,-476.271,-624.687,-170.857,0.045,0.975,0.237,4.059,-1.099,0.000,26.667,11.000,1.000
-512.034,-822.276,-402.421,-709.534,-937.343,-265.002,-346.988,-3.666,0.044,0.975,0.238,4.181,-0.885,0.092,26.667,12.000,1.000
-443.995,-733.942,-308.365,-703.812,-1032.919,-80.019,-102.282,146.538,0.046,0.975,0.236,4.272,-0.549,0.122,26.667,13.000,1.000
-417.620,-773.639,-258.565,-826.836,-1288.802,-1.878,50.515,466.079,0.046,0.974,0.234,4.517,-0.244,0.183,26.667,14.000,1.000
-437.737,-754.953,-246.406,-740.826,-1448.483,19.938,70.721,475.645,0.045,0.975,0.234,4.700,0.092,0.214,26.667,15.000,1.000
-363.171,-510.603,-209.302,-621.736,-740.469,49.889,4.828,292.271,0.045,0.976,0.232,4.761,0.397,0.153,26.667,16.000,1.000
-270.277,-436.038,-229.776,-479.221,-417.888,-12.696,-97.901,35.584,0.043,0.977,0.227,4.883,0.610,0.092,26.667,17.000,1.000
-207.424,-420.481,-93.251,-267.059,-268.400,-19.580,-229.150,-46.581,0.040,0.978,0.227,4.913,0.732,0.061,26.667,18.000,1.000
-229.597,-286.907,-137.240,-208.050,-196.248,-127.316,-210.017,-164.241,0.039,0.979,0.225,4.974,0.946,0.061,26.667,19.000,1.000
-209.302,-239.968,-193.298,-175.327,-186.771,-181.049,-201.255,-189.990,0.035,0.978,0.224,5.005,1.007,0.031,26.667,20.000,1.000
-186.592,-231.653,-187.844,-165.045,-177.652,-176.489,-194.371,-185.698,0.031,0.978,0.222,5.005,1.007,-0.092,26.667,21.000,1.000
-179.529,-225.931,-182.748,-159.323,-172.287,-171.751,-188.738,-179.887,0.030,0.974,0.223,4.852,0.946,-0.122,26.667,22.000,1.000
-175.059,-220.031,-178.367,-154.585,-167.638,-167.549,-184.268,-174.522,0.032,0.976,0.218,4.944,0.824,-0.305,26.667,23.000,1.000
-171.125,-214.756,-174.254,-150.383,-163.972,-163.883,-180.244,-170.499,0.033,0.973,0.218,4.913,0.641,-0.305,26.667,24.000,1.000
-167.906,-210.106,-170.678,-146.717,-160.486,-160.396,-176.668,-166.833,0.032,0.975,0.218,4.883,0.641,-0.305,26.667,25.000,1.000
-164.151,-205.725,-167.370,-143.141,-157.267,-157.088,-173.181,-163.704,0.031,0.975,0.218,4.822,0.519,-0.366,26.667,26.000,1.000
-161.290,-201.702,-164.062,-140.280,-154.227,-153.869,-170.141,-160.217,0.033,0.979,0.215,4.822,0.458,-0.519,26.667,27.000,1.000
-158.876,-198.036,-161.469,-136.971,-151.455,-151.008,-167.280,-157.446,0.032,0.980,0.213,4.761,0.305,-0.610,26.667,28.000,1.000
-155.926,-194.371,-159.055,-134.200,-148.952,-148.505,-164.241,-155.211,0.030,0.982,0.215,4.578,0.122,-0.610,26.667,29.000,1.000
-152.797,-191.063,-156.283,-132.233,-146.627,-145.912,-161.737,-152.439,0.029,0.983,0.219,4.364,-0.031,-0.702,26.667,30.000,1.000
-150.561,-188.023,-154.048,-130.355,-144.303,-143.766,-159.770,-149.846,0.030,0.985,0.217,3.967,-0.183,-0.793,26.667,31.000,1.000
-148.326,-185.341,-151.724,-128.299,-142.068,-141.621,-157.267,-147.700,0.028,0.986,0.212,3.693,-0.458,-0.916,26.667,32.000,1.000
-146.538,-182.658,-149.667,-126.690,-140.011,-139.475,-155.032,-145.823,0.031,0.985,0.214,3.265,-0.671,-0.885,26.667,33.000,1.000
-144.571,-180.066,-147.700,-124.812,-138.223,-137.955,-153.154,-143.588,0.033,0.986,0.214,2.869,-0.824,-0.885,26.667,34.000,1.000
-142.962,-177.652,-145.912,-123.382,-136.346,-136.077,-151.008,-141.621,0.036,0.985,0.210,2.655,-0.854,-0.732,26.667,35.000,1.000
-141.352,-175.327,-144.213,-121.951,-134.647,-134.379,-149.220,-139.922,0.035,0.984,0.211,2.533,-0.916,-0.610,26.667,36.000,1.000
-139.743,-173.003,-142.694,-120.878,-133.127,-133.216,-147.253,-138.313,0.037,0.985,0.211,2.350,-0.977,-0.519,26.667,37.000,1.000
-138.134,-170.946,-141.263,-119.269,-131.965,-131.786,-145.733,-136.524,0.035,0.989,0.214,2.075,-0.946,-0.427,26.667,38.000,1.000
-136.614,-169.337,-139.743,-118.464,-130.802,-130.445,-144.303,-135.094,0.032,0.994,0.215,1.709,-0.977,-0.366,26.667,39.000,1.000
-135.183,-167.370,-138.313,-117.302,-129.551,-129.104,-142.962,-133.932,0.030,0.993,0.217,1.282,-1.068,-0.305,26.667,40.000,1.000
-134.200,-165.761,-137.240,-116.587,-128.210,-127.763,-141.621,-132.680,0.031,0.988,0.215,0.916,-1.251,-0.336,26.667,41.000,1.000
-132.948,-164.241,-135.809,-115.782,-127.047,-126.690,-140.458,-131.518,0.029,0.986,0.215,0.519,-1.434,-0.458,26.667,42.000,1.000
-131.875,-162.810,-134.736,-115.156,-126.153,-125.617,-139.296,-130.177,0.029,0.987,0.216,0.397,-1.709,-0.458,26.667,43.000,1.000
-130.266,-161.380,-133.663,-114.530,-124.991,-124.633,-138.134,-129.283,0.028,0.990,0.217,0.275,-1.770,-0.427,26.667,44.000,1.000
-129.461,-160.217,-132.680,-113.904,-123.918,-123.560,-136.971,-128.120,0.027,0.993,0.217,0.244,-1.984,-0.549,26.667,45.000,1.000
-128.388,-159.055,-131.786,-113.100,-122.666,-122.398,-136.077,-127.226,0.026,0.995,0.218,0.031,-2.167,-0.549,26.667,46.000,1.000
-127.316,-157.893,-130.713,-112.563,-122.041,-121.415,-134.915,-126.243,0.026,0.994,0.218,-0.336,-2.319,-0.549,26.667,47.000,1.000
-126.869,-156.999,-129.551,-112.295,-121.504,-120.878,-133.842,-125.259,0.025,0.992,0.219,-0.702,-2.533,-0.519,26.667,48.000,1.000
-126.064,-155.568,-129.104,-111.938,-120.610,-120.431,-133.038,-124.633,0.028,0.990,0.216,-0.885,-2.625,-0.610,26.667,49.000,1.000
-125.259,-154.585,-128.478,-111.669,-119.984,-119.358,-132.322,-123.918,0.031,0.988,0.223,-1.129,-2.808,-0.610,26.667,50.000,1.000
-124.365,-153.780,-127.494,-110.954,-119.001,-118.822,-131.786,-122.935,0.032,0.987,0.224,-1.160,-2.838,-0.610,26.667,51.000,1.000
-123.739,-152.618,-126.600,-110.596,-118.107,-118.107,-130.981,-122.577,0.033,0.985,0.226,-1.190,-2.899,-0.671,26.667,52.000,1.000
-123.024,-151.634,-125.885,-110.328,-117.570,-117.391,-130.087,-121.772,0.032,0.987,0.227,-1.221,-2.960,-0.671,26.667,53.000,1.000
-122.219,-150.830,-125.170,-110.149,-117.302,-116.855,-129.461,-121.236,0.031,0.988,0.226,-1.343,-2.960,-0.732,26.667,54.000,1.000
-121.862,-150.204,-124.902,-109.792,-116.587,-116.229,-128.925,-120.431,0.029,0.992,0.222,-1.251,-2.869,-0.793,26.667,55.000,1.000
-121.236,-149.488,-124.276,-109.702,-115.871,-115.514,-128.388,-119.805,0.028,0.997,0.224,-1.373,-2.869,-0.885,26.667,56.000,1.000
-120.789,-148.773,-123.650,-109.434,-115.603,-115.067,-127.494,-119.537,0.028,0.999,0.222,-1.495,-3.052,-0.824,26.667,57.000,1.000
-120.342,-148.058,-123.024,-108.987,-114.799,-114.620,-126.869,-118.822,0.027,1.002,0.224,-1.648,-3.174,-0.916,26.667,58.000,1.000
-119.716,-147.343,-122.577,-108.808,-114.441,-114.083,-126.600,-118.196,0.025,1.004,0.224,-1.801,-3.204,-0.946,26.667,59.000,1.000
-119.001,-146.717,-122.130,-108.808,-113.904,-113.636,-126.153,-117.838,0.023,1.002,0.224,-1.984,-3.265,-1.221,26.667,60.000,1.000
-118.822,-146.359,-121.683,-108.540,-113.547,-113.279,-125.527,-117.302,0.024,1.001,0.224,-2.045,-3.296,-1.282,26.667,61.000,1.000
-118.375,-145.823,-121.146,-108.093,-113.189,-112.832,-125.080,-117.034,0.026,0.999,0.223,-2.136,-3.326,-1.404,26.667,62.000,1.000
-117.660,-145.197,-120.699,-107.825,-112.832,-112.474,-124.812,-116.766,0.027,0.999,0.223,-2.289,-3.540,-1.526,26.667,63.000,1.000
-117.302,-144.839,-120.342,-107.557,-112.563,-112.206,-124.365,-116.318,0.028,0.998,0.224,-2.380,-3.540,-1.678,26.667,64.000,1.000
-116.855,-144.482,-120.074,-107.825,-112.116,-111.669,-124.007,-115.782,0.029,0.998,0.228,-2.350,-3.479,-1.740,26.667,65.000,1.000
-116.587,-143.677,-119.537,-107.557,-111.848,-111.580,-123.560,-115.424,0.028,1.000,0.226,-2.411,-3.387,-1.892,26.667,66.000,1.000
-116.497,-143.230,-119.448,-107.199,-111.401,-111.222,-123.024,-115.067,0.028,1.001,0.228,-2.350,-3.265,-2.075,26.667,67.000,1.000
-116.140,-142.783,-119.090,-107.020,-111.043,-110.865,-122.666,-114.799,0.029,1.002,0.228,-2.563,-3.235,-2.258,26.667,68.000,1.000
-115.961,-142.515,-118.643,-106.931,-110.775,-110.507,-122.398,-114.352,0.030,1.000,0.228,-2.563,-3.174,-2.472,26.667,69.000,1.000
-115.514,-141.978,-118.196,-106.752,-110.596,-110.239,-121.951,-113.904,0.028,0.995,0.229,-2.808,-3.082,-2.594,26.667,70.000,1.000
-115.246,-141.621,-118.107,-106.663,-110.149,-109.881,-121.862,-113.904,0.027,0.993,0.231,-3.143,-3.052,-2.747,26.667,71.000,1.000
-114.977,-141.174,-117.749,-106.752,-109.971,-109.613,-121.683,-113.726,0.028,0.988,0.232,-3.143,-2.960,-2.869,26.667,72.000,1.000
-114.799,-141.174,-117.302,-106.573,-109.702,-109.434,-121.236,-113.368,0.027,0.982,0.231,-3.082,-2.716,-3.052,26.667,73.000,1.000
-114.441,-140.637,-117.213,-106.573,-109.524,-109.255,-120.878,-113.010,0.028,0.979,0.230,-2.960,-2.594,-3.204,26.667,74.000,1.000
-114.262,-140.280,-117.213,-106.394,-109.255,-109.166,-120.610,-112.653,0.030,0.978,0.229,-2.686,-2.350,-3.265,26.667,75.000,1.000
-114.173,-140.011,-116.766,-106.215,-108.898,-108.808,-120.431,-112.563,0.029,0.978,0.231,-2.289,-2.136,-3.265,26.667,76.000,1.000
-113.815,-139.654,-116.676,-105.947,-108.629,-108.719,-120.252,-112.206,0.030,0.979,0.231,-1.831,-1.892,-3.204,26.667,77.000,1.000
-113.457,-139.296,-116.587,-106.037,-108.451,-108.451,-120.074,-112.295,0.029,0.982,0.232,-1.587,-1.648,-3.204,26.667,78.000,1.000
-113.457,-139.117,-116.408,-105.768,-108.361,-108.361,-119.895,-112.027,0.029,0.981,0.232,-1.343,-1.465,-3.082,26.667,79.000,1.000
-113.189,-139.207,-116.140,-105.590,-108.272,-108.361,-119.537,-111.669,0.029,0.981,0.232,-1.007,-1.190,-2.991,26.667,80.000,1.000
-113.010,-138.760,-115.782,-105.590,-107.914,-108.182,-119.269,-111.491,0.028,0.980,0.229,-0.702,-1.099,-2.838,26.667,81.000,1.000
-112.921,-138.670,-115.961,-105.590,-107.825,-107.914,-118.911,-111.222,0.029,0.977,0.232,-0.427,-0.946,-2.594,26.667,82.000,1.000
-112.742,-138.491,-115.782,-105.500,-107.646,-107.467,-119.001,-111.222,0.030,0.975,0.233,-0.153,-0.732,-2.228,26.667,83.000,1.000
-112.563,-138.223,-115.424,-105.590,-107.467,-107.378,-118.911,-110.954,0.031,0.978,0.233,0.214,-0.366,-1.984,26.667,84.000,1.000
-112.563,-137.955,-114.977,-105.590,-107.467,-107.199,-118.554,-110.775,0.029,0.977,0.236,0.580,-0.061,-1.709,26.667,85.000,1.000
-112.116,-137.597,-114.709,-105.232,-107.467,-107.378,-118.196,-110.596,0.028,0.980,0.237,0.824,0.366,-1.434,26.667,86.000,1.000
-112.027,-137.419,-114.977,-105.411,-107.020,-107.288,-118.375,-110.775,0.026,0.984,0.233,0.977,0.610,-1.129,26.667,87.000,1.000
-111.848,-137.150,-114.799,-105.411,-107.020,-107.110,-118.554,-110.507,0.024,0.986,0.238,1.251,0.854,-0.885,26.667,88.000,1.000
-111.759,-137.061,-114.620,-105.232,-106.931,-106.752,-118.196,-110.239,0.020,0.988,0.236,1.434,0.977,-0.519,26.667,89.000,1.000
-111.938,-136.882,-114.530,-104.964,-106.663,-106.573,-118.017,-110.149,0.017,0.987,0.233,1.556,1.129,-0.397,26.667,90.000,1.000
-111.669,-136.882,-114.530,-104.964,-106.663,-106.573,-117.660,-110.060,0.015,0.986,0.232,1.678,1.282,-0.275,26.667,91.000,1.000
-111.222,-136.971,-114.083,-104.874,-106.752,-106.573,-117.660,-110.060,0.015,0.987,0.232,2.045,1.282,-0.031,26.667,92.000,1.000
-111.222,-136.882,-113.904,-104.964,-106.573,-106.394,-117.749,-109.613,0.014,0.987,0.232,2.289,1.373,0.122,26.667,93.000,1.000
-111.222,-136.703,-113.904,-104.874,-106.484,-106.305,-117.391,-109.702,0.013,0.989,0.235,2.563,1.434,0.397,26.667,94.000,1.000
-111.401,-136.435,-114.173,-104.874,-106.484,-106.126,-117.302,-109.613,0.010,0.992,0.233,2.594,1.282,0.641,26.667,95.000,1.000
-111.401,-136.435,-114.173,-104.874,-106.484,-106.126,-117.302,-109.613,0.010,0.992,0.233,2.594,1.282,0.641,26.667,96.000,0.000
-111.401,-136.435,-114.173,-104.874,-106.484,-106.126,-117.302,-109.613,0.010,0.992,0.233,2.594,1.282,0.641,26.667,97.000,0.000
-111.401,-136.435,-114.173,-104.874,-106.484,-106.126,-117.302,-109.613,0.010,0.992,0.233,2.594,1.282,0.641,26.667,98.000,0.000
-111.401,-136.435,-114.173,-104.874,-106.484,-106.126,-117.302,-109.613,0.010,0.992,0.233,2.594,1.282,0.641,26.667,99.000,0.000
-111.401,-136.435,-114.173,-104.874,-106.484,-106.126,-117.302,-109.613,0.010,0.992,0.233,2.594,1.282,0.641,26.667,100.000,0.000
-111.401,-136.435,-114.173,-104.874,-106.484,-106.126,-117.302,-109.613,0.010,0.992,0.233,2.594,1.282,0.641,26.667,101.000,0.000
-111.401,-136.435,-114.173,-104.874,-106.484,-106.126,-117.302,-109.613,0.010,0.992,0.233,2.594,1.282,0.641,26.667,102.000,0.000
-111.401,-136.435,-114.173,-104.874,-106.484,-106.126,-117.302,-109.613,0.010,0.992,0.233,2.594,1.282,0.641,26.667,103.000,0.000
-111.401,-136.435,-114.173,-104.874,-106.484,-106.126,-117.302,-109.613,0.010,0.992,0.233,2.594,1.282,0.641,26.667,104.000,0.000
-111.401,-136.435,-114.173,-104.874,-106.484,-106.126,-117.302,-109.613,0.010,0.992,0.233,2.594,1.282,0.641,26.667,105.000,0.000
-111.401,-136.435,-114.173,-104.874,-106.484,-106.126,-117.302,-109.613,0.010,0.992,0.233,2.594,1.282,0.641,26.667,106.000,0.000
-111.401,-136.435,-114.173,-104.874,-106.484,-106.126,-117.302,-109.613,0.010,0.992,0.233,2.594,1.282,0.641,26.667,107.000,0.000
-111.401,-136.435,-114.173,-104.874,-106.484,-106.126,-117.302,-109.613,0.010,0.992,0.233,2.594,1.282,0.641,26.667,108.000,0.000
-111.401,-136.435,-114.173,-104.874,-106.484,-106.126,-117.302,-109.613,0.010,0.992,0.233,2.594,1.282,0.641,26.667,109.000,0.000
-111.401,-136.435,-114.173,-104.874,-106.484,-106.126,-117.302,-109.613,0.010,0.992,0.233,2.594,1.282,0.641,26.667,110.000,0.000
-111.401,-136.435,-114.173,-104.874,-106.484,-106.126,-117.302,-109.613,0.010,0.992,0.233,2.594,1.282,0.641,26.667,111.000,0.000
-111.401,-136.435,-114.173,-104.874,-106.484,-106.126,-117.302,-109.613,0.010,0.992,0.233,2.594,1.282,0.641,26.667,112.000,0.000
-111.401,-136.435,-114.173,-104.874,-106.484,-106.126,-117.302,-109.613,0.010,0.992,0.233,2.594,1.282,0.641,26.667,113.000,0.000
-111.401,-136.435,-114.173,-104.874,-106.484,-106.126,-117.302,-109.613,0.010,0.992,0.233,2.594,1.282,0.641,26.667,114.000,0.000
-111.401,-136.435,-114.173,-104.874,-106.484,-106.126,-117.302,-109.613,0.010,0.992,0.233,2.594,1.282,0.641,26.667,115.000,0.000
-111.401,-136.435,-114.173,-104.874,-106.484,-106.126,-117.302,-109.613,0.010,0.992,0.233,2.594,1.282,0.641,26.667,116.000,0.000
-111.401,-136.435,-114.173,-104.874,-106.484,-106.126,-117.302,-109.613,0.010,0.992,0.233,2.594,1.282,0.641,26.667,117.000,0.000
-111.401,-136.435,-114.173,-104.874,-106.484,-106.126,-117.302,-109.613,0.010,0.992,0.233,2.594,1.282,0.641,26.667,118.000,0.000
-111.401,-136.435,-114.173,-104.874,-106.484,-106.126,-117.302,-109.613,0.010,0.992,0.233,2.594,1.282,0.641,26.667,119.000,0.000
-111.401,-136.435,-114.173,-104.874,-106.484,-106.126,-117.302,-109.613,0.010,0.992,0.233,2.594,1.282,0.641,26.667,120.000,0.000
-111.401,-136.435,-114.173,-104.874,-106.484,-106.126,-117.302,-109.613,0.010,0.992,0.233,2.594,1.282,0.641,26.667,121.000,0.000
-111.401,-136.435,-114.173,-104.874,-106.484,-106.126,-117.302,-109.613,0.010,0.992,0.233,2.594,1.282,0.641,26.667,122.000,0.000
-111.401,-136.435,-114.173,-104.874,-106.484,-106.126,-117.302,-109.613,0.010,0.992,0.233,2.594,1.282,0.641,26.667,123.000,0.000
-111.401,-136.435,-114.173,-104.874,-106.484,-106.126,-117.302,-109.613,0.010,0.992,0.233,2.594,1.282,0.641,26.667,124.000,0.000
-111.401,-136.435,-114.173,-104.874,-106.484,-106.126,-117.302,-109.613,0.010,0.992,0.233,2.594,1.282,0.641,26.667,125.000,0.000
-111.401,-136.435,-114.173,-104.874,-106.484,-106.126,-117.302,-109.613,0.010,0.992,0.233,2.594,1.282,0.641,26.667,126.000,0.000
-111.401,-136.435,-114.173,-104.874,-106.484,-106.126,-117.302,-109.613,0.010,0.992,0.233,2.594,1.282,0.641,26.667,127.000,0.000
-111.401,-136.435,-114.173,-104.874,-106.484,-106.126,-117.302,-109.613,0.010,0.992,0.233,2.594,1.282,0.641,26.667,128.000,0.000
-111.401,-136.435,-114.173,-104.874,-106.484,-106.126,-117.302,-109.613,0.010,0.992,0.233,2.594,1.282,0.641,26.667,129.000,0.000
-109.434,-134.021,-112.206,-104.070,-104.517,-104.338,-115.424,-107.646,0.026,0.984,0.213,3.815,-0.305,2.960,26.667,130.000,1.000
-109.255,-134.021,-111.938,-103.891,-104.517,-104.517,-115.335,-107.825,0.026,0.981,0.213,3.815,-0.610,2.594,26.667,131.000,1.000
-109.166,-133.842,-111.759,-103.712,-104.249,-104.517,-115.424,-107.914,0.025,0.978,0.215,3.815,-0.732,2.380,26.667,132.000,1.000
-109.345,-133.842,-111.938,-103.802,-104.427,-104.517,-115.424,-107.914,0.025,0.974,0.217,3.845,-1.038,2.075,26.667,133.000,1.000
-109.524,-134.021,-111.938,-103.802,-104.517,-104.517,-115.335,-107.914,0.024,0.975,0.215,4.181,-1.251,1.770,26.667,134.000,1.000
-109.255,-134.021,-112.027,-104.070,-104.338,-104.249,-115.424,-107.735,0.023,0.976,0.218,4.395,-1.526,1.373,26.667,135.000,1.000
-109.255,-133.753,-112.116,-103.802,-104.338,-104.070,-115.514,-107.825,0.025,0.978,0.222,4.639,-1.831,1.038,26.667,136.000,1.000
-109.255,-133.753,-111.938,-103.891,-104.427,-104.249,-115.424,-107.914,0.024,0.981,0.223,4.883,-2.136,0.580,26.667,137.000,1.000
-109.345,-133.842,-111.848,-103.891,-104.338,-104.606,-115.424,-107.914,0.026,0.984,0.224,5.005,-2.533,0.305,26.667,138.000,1.000
-109.166,-133.842,-111.848,-104.070,-104.249,-104.338,-115.424,-107.735,0.027,0.985,0.224,5.188,-2.808,0.061,26.667,139.000,1.000
-109.166,-133.842,-111.848,-104.070,-104.249,-104.338,-115.424,-107.735,0.027,0.985,0.224,5.188,-2.808,0.061,26.667,140.000,0.000
-109.166,-133.842,-111.848,-104.070,-104.249,-104.338,-115.424,-107.735,0.027,0.985,0.224,5.188,-2.808,0.061,26.667,141.000,0.000
-109.166,-133.842,-111.848,-104.070,-104.249,-104.338,-115.424,-107.735,0.027,0.985,0.224,5.188,-2.808,0.061,26.667,142.000,0.000
-109.166,-133.842,-111.848,-104.070,-104.249,-104.338,-115.424,-107.735,0.027,0.985,0.224,5.188,-2.808,0.061,26.667,143.000,0.000
-109.166,-133.842,-111.848,-104.070,-104.249,-104.338,-115.424,-107.735,0.027,0.985,0.224,5.188,-2.808,0.061,26.667,144.000,0.000
-109.166,-133.842,-111.848,-104.070,-104.249,-104.338,-115.424,-107.735,0.027,0.985,0.224,5.188,-2.808,0.061,26.667,145.000,0.000
-109.166,-133.842,-111.848,-104.070,-104.249,-104.338,-115.424,-107.735,0.027,0.985,0.224,5.188,-2.808,0.061,26.667,146.000,0.000
-109.166,-133.842,-111.848,-104.070,-104.249,-104.338,-115.424,-107.735,0.027,0.985,0.224,5.188,-2.808,0.061,26.667,147.000,0.000
-109.166,-133.842,-111.848,-104.070,-104.249,-104.338,-115.424,-107.735,0.027,0.985,0.224,5.188,-2.808,0.061,26.667,148.000,0.000
-109.166,-133.842,-111.848,-104.070,-104.249,-104.338,-115.424,-107.735,0.027,0.985,0.224,5.188,-2.808,0.061,26.667,149.000,0.000
-109.166,-133.842,-111.848,-104.070,-104.249,-104.338,-115.424,-107.735,0.027,0.985,0.224,5.188,-2.808,0.061,26.667,150.000,0.000
-109.166,-133.842,-111.848,-104.070,-104.249,-104.338,-115.424,-107.735,0.027,0.985,0.224,5.188,-2.808,0.061,26.667,151.000,0.000
-109.166,-133.842,-111.848,-104.070,-104.249,-104.338,-115.424,-107.735,0.027,0.985,0.224,5.188,-2.808,0.061,26.667,152.000,0.000
-109.166,-133.842,-111.848,-104.070,-104.249,-104.338,-115.424,-107.735,0.027,0.985,0.224,5.188,-2.808,0.061,26.667,153.000,0.000
-109.166,-133.842,-111.848,-104.070,-104.249,-104.338,-115.424,-107.735,0.027,0.985,0.224,5.188,-2.808,0.061,26.667,154.000,0.000
-109.166,-133.842,-111.848,-104.070,-104.249,-104.338,-115.424,-107.735,0.027,0.985,0.224,5.188,-2.808,0.061,26.667,155.000,0.000
-109.166,-133.842,-111.848,-104.070,-104.249,-104.338,-115.424,-107.735,0.027,0.985,0.224,5.188,-2.808,0.061,26.667,156.000,0.000
-109.166,-133.842,-111.848,-104.070,-104.249,-104.338,-115.424,-107.735,0.027,0.985,0.224,5.188,-2.808,0.061,26.667,157.000,0.000
-109.166,-133.842,-111.848,-104.070,-104.249,-104.338,-115.424,-107.735,0.027,0.985,0.224,5.188,-2.808,0.061,26.667,158.000,0.000
-109.166,-133.842,-111.848,-104.070,-104.249,-104.338,-115.424,-107.735,0.027,0.985,0.224,5.188,-2.808,0.061,26.667,159.000,0.000
-109.166,-133.842,-111.848,-104.070,-104.249,-104.338,-115.424,-107.735,0.027,0.985,0.224,5.188,-2.808,0.061,26.667,160.000,0.000
-109.166,-133.842,-111.848,-104.070,-104.249,-104.338,-115.424,-107.735,0.027,0.985,0.224,5.188,-2.808,0.061,26.667,161.000,0.000
-109.166,-133.842,-111.848,-104.070,-104.249,-104.338,-115.424,-107.735,0.027,0.985,0.224,5.188,-2.808,0.061,26.667,162.000,0.000
-109.166,-133.842,-111.848,-104.070,-104.249,-104.338,-115.424,-107.735,0.027,0.985,0.224,5.188,-2.808,0.061,26.667,163.000,0.000
-109.166,-133.842,-111.848,-104.070,-104.249,-104.338,-115.424,-107.735,0.027,0.985,0.224,5.188,-2.808,0.061,26.667,164.000,0.000
-109.166,-133.842,-111.848,-104.070,-104.249,-104.338,-115.424,-107.735,0.027,0.985,0.224,5.188,-2.808,0.061,26.667,165.000,0.000
-109.166,-133.842,-111.848,-104.070,-104.249,-104.338,-115.424,-107.735,0.027,0.985,0.224,5.188,-2.808,0.061,26.667,166.000,0.000
-109.166,-133.842,-111.848,-104.070,-104.249,-104.338,-115.424,-107.735,0.027,0.985,0.224,5.188,-2.808,0.061,26.667,167.000,0.000
-109.166,-133.842,-111.848,-104.070,-104.249,-104.338,-115.424,-107.735,0.027,0.985,0.224,5.188,-2.808,0.061,26.667,168.000,0.000
-109.166,-133.842,-111.848,-104.070,-104.249,-104.338,-115.424,-107.735,0.027,0.985,0.224,5.188,-2.808,0.061,26.667,169.000,0.000
-109.166,-133.842,-111.848,-104.070,-104.249,-104.338,-115.424,-107.735,0.027,0.985,0.224,5.188,-2.808,0.061,26.667,170.000,0.000
-109.166,-133.842,-111.848,-104.070,-104.249,-104.338,-115.424,-107.735,0.027,0.985,0.224,5.188,-2.808,0.061,26.667,171.000,0.000
-109.166,-133.842,-111.848,-104.070,-104.249,-104.338,-115.424,-107.735,0.027,0.985,0.224,5.188,-2.808,0.061,26.667,172.000,0.000
-109.166,-133.842,-111.848,-104.070,-104.249,-104.338,-115.424,-107.735,0.027,0.985,0.224,5.188,-2.808,0.061,26.667,173.000,0.000
-108.987,-133.663,-111.491,-102.729,-103.980,-103.891,-114.799,-107.467,0.037,1.000,0.183,5.676,-5.524,1.434,26.667,174.000,1.000
-108.808,-133.574,-111.401,-102.460,-103.802,-104.070,-114.977,-107.467,0.040,1.000,0.181,5.219,-5.432,1.526,26.667,175.000,1.000
-108.808,-133.485,-111.222,-102.282,-103.891,-104.159,-114.977,-107.378,0.039,0.999,0.181,4.639,-5.371,1.556,26.667,176.000,1.000
-108.987,-133.306,-111.401,-102.282,-103.980,-104.070,-115.067,-107.378,0.040,0.995,0.180,4.242,-5.096,1.617,26.667,177.000,1.000
-108.898,-133.306,-111.491,-102.103,-104.338,-103.891,-114.977,-107.288,0.041,0.990,0.179,3.937,-4.852,1.495,26.667,178.000,1.000
-108.808,-133.395,-111.580,-101.924,-104.070,-104.249,-114.977,-107.378,0.043,0.989,0.176,3.601,-4.700,1.495,26.667,179.000,1.000
-108.808,-133.395,-111.669,-101.835,-104.159,-104.159,-114.977,-107.467,0.041,0.983,0.176,3.387,-4.333,1.404,26.667,180.000,1.000
-109.077,-133.395,-111.580,-101.656,-104.249,-104.159,-114.799,-107.110,0.039,0.982,0.174,3.326,-4.059,1.312,26.667,181.000,1.000
-108.987,-133.306,-111.669,-101.566,-104.249,-104.070,-114.709,-107.288,0.040,0.982,0.170,3.387,-3.815,1.251,26.667,182.000,1.000
-108.898,-133.395,-111.669,-101.656,-104.159,-104.159,-114.709,-107.467,0.041,0.980,0.171,3.418,-3.601,1.129,26.667,183.000,1.000
-108.808,-133.574,-111.491,-101.656,-104.070,-104.070,-114.620,-107.467,0.041,0.982,0.172,3.357,-3.387,1.129,26.667,184.000,1.000
-108.808,-133.395,-111.669,-101.388,-104.070,-103.891,-114.799,-107.378,0.038,0.981,0.168,3.326,-3.357,1.038,26.667,185.000,1.000
-108.719,-133.306,-111.580,-101.388,-104.249,-103.891,-114.799,-107.288,0.036,0.980,0.172,3.296,-3.143,0.885,26.667,186.000,1.000
-108.898,-133.306,-111.312,-100.940,-104.070,-103.891,-114.799,-107.378,0.035,0.979,0.173,3.418,-2.991,0.793,26.667,187.000,1.000
-108.898,-133.395,-111.401,-100.851,-104.249,-103.802,-114.620,-107.288,0.032,0.977,0.171,3.418,-2.838,0.641,26.667,188.000,1.000
-108.808,-133.216,-111.491,-100.583,-104.159,-103.980,-114.620,-107.199,0.032,0.978,0.170,3.448,-2.899,0.366,26.667,189.000,1.000
-108.987,-133.395,-111.491,-100.493,-104.070,-103.802,-114.352,-107.378,0.033,0.980,0.171,3.601,-2.808,0.122,26.667,190.000,1.000
-108.808,-133.485,-111.491,-100.315,-103.980,-103.712,-114.620,-107.378,0.034,0.981,0.170,3.601,-2.686,0.000,26.667,191.000,1.000
-108.808,-133.306,-111.491,-100.315,-104.070,-103.802,-114.620,-107.288,0.033,0.986,0.171,3.693,-2.563,-0.153,26.667,192.000,1.000
-108.808,-133.395,-111.401,-100.046,-104.070,-103.980,-114.530,-107.020,0.035,0.995,0.171,3.601,-2.594,-0.366,26.667,193.000,1.000
-108.629,-133.216,-111.401,-99.957,-104.159,-103.891,-114.620,-107.110,0.037,1.000,0.173,3.510,-2.502,-0.519,26.667,194.000,1.000
-108.719,-133.127,-111.491,-99.778,-104.249,-103.891,-114.441,-107.288,0.035,1.001,0.175,3.113,-2.411,-0.580,26.667,195.000,1.000
-108.987,-133.395,-111.491,-99.689,-104.249,-103.980,-114.530,-107.467,0.037,1.001,0.177,2.655,-2.411,-0.336,26.667,196.000,1.000
-108.808,-133.574,-111.491,-99.599,-104.070,-103.891,-114.620,-107.378,0.036,0.997,0.180,2.319,-2.350,-0.366,26.667,197.000,1.000
-108.719,-133.395,-111.580,-99.421,-103.891,-103.891,-114.441,-107.378,0.039,0.994,0.180,2.136,-2.045,-0.397,26.667,198.000,1.000
-108.808,-133.306,-111.580,-98.884,-103.980,-103.980,-114.352,-107.646,0.038,0.994,0.180,2.045,-1.801,-0.336,26.667,199.000,1.000
-108.719,-133.127,-111.491,-98.884,-104.249,-103.891,-114.441,-107.467,0.035,0.994,0.179,1.984,-1.648,-0.275,26.667,200.000,1.000
-109.077,-133.306,-111.491,-98.884,-104.070,-103.891,-114.352,-107.199,0.031,0.995,0.180,1.892,-1.526,-0.305,26.667,201.000,1.000
-109.166,-133.395,-111.491,-98.616,-103.891,-103.802,-114.352,-107.020,0.030,0.998,0.179,1.923,-1.495,-0.427,26.667,202.000,1.000
-108.987,-133.395,-111.401,-98.348,-103.980,-103.891,-114.441,-107.199,0.029,0.996,0.182,1.923,-1.495,-0.519,26.667,203.000,1.000
-108.987,-133.395,-111.401,-98.079,-104.070,-103.891,-114.352,-107.378,0.029,0.996,0.179,1.892,-1.526,-0.641,26.667,204.000,1.000
-108.808,-133.306,-111.669,-97.811,-103.891,-103.802,-114.352,-107.378,0.025,0.999,0.178,1.953,-1.465,-0.763,26.667,205.000,1.000
-108.808,-133.216,-111.669,-97.722,-104.070,-103.891,-114.262,-107.199,0.024,1.000,0.179,1.953,-1.526,-0.702,26.667,206.000,1.000
-108.540,-133.306,-111.491,-97.632,-104.070,-103.891,-114.173,-107.199,0.026,0.999,0.181,1.984,-1.587,-0.610,26.667,207.000,1.000
-108.719,-133.306,-111.491,-97.454,-103.891,-103.980,-113.904,-107.199,0.026,0.999,0.182,1.892,-1.678,-0.580,26.667,208.000,1.000
-108.898,-133.306,-111.580,-97.364,-103.802,-103.891,-114.173,-107.110,0.025,0.998,0.185,1.801,-1.648,-0.671,26.667,209.000,1.000
-108.808,-133.127,-111.580,-96.917,-103.891,-103.980,-113.994,-107.378,0.025,0.995,0.182,1.801,-1.740,-0.549,26.667,210.000,1.000
-108.808,-133.216,-111.669,-97.007,-103.891,-103.891,-113.994,-107.467,0.025,0.994,0.184,1.923,-1.709,-0.580,26.667,211.000,1.000
-108.987,-133.306,-111.491,-96.828,-104.159,-103.891,-113.726,-107.288,0.024,0.992,0.184,1.923,-1.801,-0.549,26.667,212.000,1.000
-108.719,-133.216,-111.669,-96.649,-104.070,-104.070,-113.904,-107.378,0.023,0.988,0.182,1.984,-1.770,-0.427,26.667,213.000,1.000
-108.719,-133.127,-111.491,-96.291,-103.891,-104.070,-113.904,-107.199,0.026,0.987,0.179,2.075,-1.801,-0.305,26.667,214.000,1.000
-108.719,-133.127,-111.491,-96.291,-103.891,-104.070,-113.904,-107.199,0.026,0.987,0.179,2.075,-1.801,-0.305,26.667,215.000,0.000
-108.719,-133.127,-111.491,-96.291,-103.891,-104.070,-113.904,-107.199,0.026,0.987,0.179,2.075,-1.801,-0.305,26.667,216.000,0.000
-108.719,-133.127,-111.491,-96.291,-103.891,-104.070,-113.904,-107.199,0.026,0.987,0.179,2.075,-1.801,-0.305,26.667,217.000,0.000
-108.719,-133.127,-111.491,-96.291,-103.891,-104.070,-113.904,-107.199,0.026,0.987,0.179,2.075,-1.801,-0.305,26.667,218.000,0.000
-108.719,-133.127,-111.491,-96.291,-103.891,-104.070,-113.904,-107.199,0.026,0.987,0.179,2.075,-1.801,-0.305,26.667,219.000,0.000
-108.719,-133.127,-111.491,-96.291,-103.891,-104.070,-113.904,-107.199,0.026,0.987,0.179,2.075,-1.801,-0.305,26.667,220.000,0.000
-108.719,-133.127,-111.491,-96.291,-103.891,-104.070,-113.904,-107.199,0.026,0.987,0.179,2.075,-1.801,-0.305,26.667,221.000,0.000
-108.719,-133.127,-111.491,-96.291,-103.891,-104.070,-113.904,-107.199,0.026,0.987,0.179,2.075,-1.801,-0.305,26.667,222.000,0.000
-108.719,-133.127,-111.491,-96.291,-103.891,-104.070,-113.904,-107.199,0.026,0.987,0.179,2.075,-1.801,-0.305,26.667,223.000,0.000
-108.719,-133.127,-111.491,-96.291,-103.891,-104.070,-113.904,-107.199,0.026,0.987,0.179,2.075,-1.801,-0.305,26.667,224.000,0.000
-108.719,-133.127,-111.491,-96.291,-103.891,-104.070,-113.904,-107.199,0.026,0.987,0.179,2.075,-1.801,-0.305,26.667,225.000,0.000
-108.719,-133.127,-111.491,-96.291,-103.891,-104.070,-113.904,-107.199,0.026,0.987,0.179,2.075,-1.801,-0.305,26.667,226.000,0.000
-108.719,-133.127,-111.491,-96.291,-103.891,-104.070,-113.904,-107.199,0.026,0.987,0.179,2.075,-1.801,-0.305,26.667,227.000,0.000
-108.719,-133.127,-111.491,-96.291,-103.891,-104.070,-113.904,-107.199,0.026,0.987,0.179,2.075,-1.801,-0.305,26.667,228.000,0.000
-108.719,-133.127,-111.491,-96.291,-103.891,-104.070,-113.904,-107.199,0.026,0.987,0.179,2.075,-1.801,-0.305,26.667,229.000,0.000
-108.719,-133.127,-111.491,-96.291,-103.891,-104.070,-113.904,-107.199,0.026,0.987,0.179,2.075,-1.801,-0.305,26.667,230.000,0.000
-108.719,-133.127,-111.491,-96.291,-103.891,-104.070,-113.904,-107.199,0.026,0.987,0.179,2.075,-1.801,-0.305,26.667,231.000,0.000
-108.719,-133.127,-111.491,-96.291,-103.891,-104.070,-113.904,-107.199,0.026,0.987,0.179,2.075,-1.801,-0.305,26.667,232.000,0.000
-108.719,-133.127,-111.491,-96.291,-103.891,-104.070,-113.904,-107.199,0.026,0.987,0.179,2.075,-1.801,-0.305,26.667,233.000,0.000
-108.719,-133.127,-111.491,-96.291,-103.891,-104.070,-113.904,-107.199,0.026,0.987,0.179,2.075,-1.801,-0.305,26.667,234.000,0.000
-108.719,-133.127,-111.491,-96.291,-103.891,-104.070,-113.904,-107.199,0.026,0.987,0.179,2.075,-1.801,-0.305,26.667,235.000,0.000
-108.719,-133.127,-111.491,-96.291,-103.891,-104.070,-113.904,-107.199,0.026,0.987,0.179,2.075,-1.801,-0.305,26.667,236.000,0.000
-108.719,-133.127,-111.491,-96.291,-103.891,-104.070,-113.904,-107.199,0.026,0.987,0.179,2.075,-1.801,-0.305,26.667,237.000,0.000
-108.719,-133.127,-111.491,-96.291,-103.891,-104.070,-113.904,-107.199,0.026,0.987,0.179,2.075,-1.801,-0.305,26.667,238.000,0.000
-108.719,-133.127,-111.491,-96.291,-103.891,-104.070,-113.904,-107.199,0.026,0.987,0.179,2.075,-1.801,-0.305,26.667,239.000,0.000
-108.719,-133.127,-111.491,-96.291,-103.891,-104.070,-113.904,-107.199,0.026,0.987,0.179,2.075,-1.801,-0.305,26.667,240.000,0.000
-108.719,-133.127,-111.491,-96.291,-103.891,-104.070,-113.904,-107.199,0.026,0.987,0.179,2.075,-1.801,-0.305,26.667,241.000,0.000
-108.719,-133.127,-111.491,-96.291,-103.891,-104.070,-113.904,-107.199,0.026,0.987,0.179,2.075,-1.801,-0.305,26.667,242.000,0.000
-108.719,-133.127,-111.491,-96.291,-103.891,-104.070,-113.904,-107.199,0.026,0.987,0.179,2.075,-1.801,-0.305,26.667,243.000,0.000
-108.719,-133.127,-111.491,-96.291,-103.891,-104.070,-113.904,-107.199,0.026,0.987,0.179,2.075,-1.801,-0.305,26.667,244.000,0.000
-108.719,-133.127,-111.491,-96.291,-103.891,-104.070,-113.904,-107.199,0.026,0.987,0.179,2.075,-1.801,-0.305,26.667,245.000,0.000
-108.719,-133.127,-111.491,-96.291,-103.891,-104.070,-113.904,-107.199,0.026,0.987,0.179,2.075,-1.801,-0.305,26.667,246.000,0.000
-108.719,-133.127,-111.491,-96.291,-103.891,-104.070,-113.904,-107.199,0.026,0.987,0.179,2.075,-1.801,-0.305,26.667,247.000,0.000
-108.719,-133.127,-111.491,-96.291,-103.891,-104.070,-113.904,-107.199,0.026,0.987,0.179,2.075,-1.801,-0.305,26.667,248.000,0.000
-108.719,-133.127,-111.491,-96.291,-103.891,-104.070,-113.904,-107.199,0.026,0.987,0.179,2.075,-1.801,-0.305,26.667,249.000,0.000
-108.719,-133.127,-111.491,-96.291,-103.891,-104.070,-113.904,-107.199,0.026,0.987,0.179,2.075,-1.801,-0.305,26.667,250.000,0.000
-108.719,-133.127,-111.491,-96.291,-103.891,-104.070,-113.904,-107.199,0.026,0.987,0.179,2.075,-1.801,-0.305,26.667,251.000,0.000
-108.719,-133.127,-111.491,-96.291,-103.891,-104.070,-113.904,-107.199,0.026,0.987,0.179,2.075,-1.801,-0.305,26.667,252.000,0.000
-108.719,-133.127,-111.491,-96.291,-103.891,-104.070,-113.904,-107.199,0.026,0.987,0.179,2.075,-1.801,-0.305,26.667,253.000,0.000
-108.719,-133.127,-111.491,-96.291,-103.891,-104.070,-113.904,-107.199,0.026,0.987,0.179,2.075,-1.801,-0.305,26.667,254.000,0.000
-108.719,-133.127,-111.491,-96.291,-103.891,-104.070,-113.904,-107.199,0.026,0.987,0.179,2.075,-1.801,-0.305,26.667,255.000,0.000
-108.719,-133.127,-111.491,-96.291,-103.891,-104.070,-113.904,-107.199,0.026,0.987,0.179,2.075,-1.801,-0.305,26.667,256.000,0.000
-108.719,-133.127,-111.491,-96.291,-103.891,-104.070,-113.904,-107.199,0.026,0.987,0.179,2.075,-1.801,-0.305,26.667,257.000,0.000
-108.719,-133.127,-111.491,-96.291,-103.891,-104.070,-113.904,-107.199,0.026,0.987,0.179,2.075,-1.801,-0.305,26.667,258.000,0.000
-108.719,-133.127,-111.491,-96.291,-103.891,-104.070,-113.904,-107.199,0.026,0.987,0.179,2.075,-1.801,-0.305,26.667,259.000,0.000
-108.719,-133.127,-111.491,-96.291,-103.891,-104.070,-113.904,-107.199,0.026,0.987,0.179,2.075,-1.801,-0.305,26.667,260.000,0.000
-108.719,-133.127,-111.491,-96.291,-103.891,-104.070,-113.904,-107.199,0.026,0.987,0.179,2.075,-1.801,-0.305,26.667,261.000,0.000
-108.719,-133.127,-111.491,-96.291,-103.891,-104.070,-113.904,-107.199,0.026,0.987,0.179,2.075,-1.801,-0.305,26.667,262.000,0.000
-108.719,-133.127,-111.491,-96.291,-103.891,-104.070,-113.904,-107.199,0.026,0.987,0.179,2.075,-1.801,-0.305,26.667,263.000,0.000
-108.719,-133.127,-111.491,-96.291,-103.891,-104.070,-113.904,-107.199,0.026,0.987,0.179,2.075,-1.801,-0.305,26.667,264.000,0.000
-108.719,-133.127,-111.491,-96.291,-103.891,-104.070,-113.904,-107.199,0.026,0.987,0.179,2.075,-1.801,-0.305,26.667,265.000,0.000
-108.719,-133.127,-111.491,-96.291,-103.891,-104.070,-113.904,-107.199,0.026,0.987,0.179,2.075,-1.801,-0.305,26.667,266.000,0.000
-108.719,-133.127,-111.491,-96.291,-103.891,-104.070,-113.904,-107.199,0.026,0.987,0.179,2.075,-1.801,-0.305,26.667,267.000,0.000
-108.719,-133.127,-111.491,-96.291,-103.891,-104.070,-113.904,-107.199,0.026,0.987,0.179,2.075,-1.801,-0.305,26.667,268.000,0.000
-108.719,-133.127,-111.491,-96.291,-103.891,-104.070,-113.904,-107.199,0.026,0.987,0.179,2.075,-1.801,-0.305,26.667,269.000,0.000
-108.719,-133.127,-111.491,-96.291,-103.891,-104.070,-113.904,-107.199,0.026,0.987,0.179,2.075,-1.801,-0.305,26.667,270.000,0.000
-108.719,-133.127,-111.491,-96.291,-103.891,-104.070,-113.904,-107.199,0.026,0.987,0.179,2.075,-1.801,-0.305,26.667,271.000,0.000
-108.719,-133.127,-111.491,-96.291,-103.891,-104.070,-113.904,-107.199,0.026,0.987,0.179,2.075,-1.801,-0.305,26.667,272.000,0.000
-108.719,-133.127,-111.491,-96.291,-103.891,-104.070,-113.904,-107.199,0.026,0.987,0.179,2.075,-1.801,-0.305,26.667,273.000,0.000
7986.636,7938.804,8206.756,7947.744,8056.195,8208.813,8287.938,8492.232,0.029,1.000,0.191,-1.373,-0.702,-0.031,26.667,274.000,1.000
8122.535,8074.434,8342.834,8083.643,8192.451,8345.158,8424.462,8628.311,0.029,1.001,0.191,-1.465,-0.854,0.000,26.667,275.000,1.000
8248.777,8201.213,8470.238,8210.601,8319.141,8471.848,8551.510,8755.805,0.030,1.001,0.194,-1.587,-0.946,-0.092,26.667,276.000,1.000
8408.638,8361.341,8630.813,8371.176,8480.163,8632.513,8712.531,8916.737,0.028,1.003,0.192,-1.740,-1.160,0.031,26.667,277.000,1.000
8599.968,8552.582,8822.502,8563.043,8672.030,8824.290,8904.310,9108.247,0.028,1.001,0.189,-1.984,-1.190,-0.031,26.667,278.000,1.000
8750.262,8702.786,8972.975,8713.694,8822.234,8974.673,9054.960,9259.255,0.029,1.003,0.190,-1.923,-1.282,-0.092,26.667,279.000,1.000
8874.626,8827.241,9097.518,8838.148,8946.599,9099.217,9180.130,9384.157,0.028,1.001,0.191,-1.831,-1.465,-0.061,26.667,280.000,1.000
9032.698,8985.491,9255.769,8996.846,9105.654,9257.914,9339.186,9543.122,0.030,0.998,0.193,-1.862,-1.648,-0.061,26.667,281.000,1.000
9223.225,9175.928,9446.921,9187.641,9296.627,9448.977,9530.248,9734.274,0.030,0.997,0.193,-1.831,-1.709,-0.061,26.667,282.000,1.000
9388.984,9342.046,9612.949,9353.848,9462.656,9615.185,9696.545,9900.393,0.031,0.993,0.197,-1.862,-1.892,0.061,26.667,283.000,1.000
9507.628,9461.137,9732.039,9472.938,9581.925,9734.453,9815.813,10020.020,0.031,0.991,0.195,-1.831,-1.953,0.031,26.667,284.000,1.000
9661.229,9614.648,9886.355,9626.896,9735.795,9888.681,9969.862,10174.336,0.032,0.990,0.193,-1.648,-2.045,0.031,26.667,285.000,1.000
9846.391,9799.721,10071.696,9812.327,9921.314,10074.200,10155.382,10360.034,0.036,0.988,0.192,-1.099,-1.984,-0.031,26.667,286.000,1.000
9846.391,9799.721,10071.696,9812.327,9921.314,10074.200,10155.382,10360.034,0.036,0.988,0.192,-1.099,-1.984,-0.031,26.667,287.000,0.000
9846.391,9799.721,10071.696,9812.327,9921.314,10074.200,10155.382,10360.034,0.036,0.988,0.192,-1.099,-1.984,-0.031,26.667,288.000,0.000
9846.391,9799.721,10071.696,9812.327,9921.314,10074.200,10155.382,10360.034,0.036,0.988,0.192,-1.099,-1.984,-0.031,26.667,289.000,0.000
9846.391,9799.721,10071.696,9812.327,9921.314,10074.200,10155.382,10360.034,0.036,0.988,0.192,-1.099,-1.984,-0.031,26.667,290.000,0.000
9846.391,9799.721,10071.696,9812.327,9921.314,10074.200,10155.382,10360.034,0.036,0.988,0.192,-1.099,-1.984,-0.031,26.667,291.000,0.000
9846.391,9799.721,10071.696,9812.327,9921.314,10074.200,10155.382,10360.034,0.036,0.988,0.192,-1.099,-1.984,-0.031,26.667,292.000,0.000
9846.391,9799.721,10071.696,9812.327,9921.314,10074.200,10155.382,10360.034,0.036,0.988,0.192,-1.099,-1.984,-0.031,26.667,293.000,0.000
9846.391,9799.721,10071.696,9812.327,9921.314,10074.200,10155.382,10360.034,0.036,0.988,0.192,-1.099,-1.984,-0.031,26.667,294.000,0.000
9846.391,9799.721,10071.696,9812.327,9921.314,10074.200,10155.382,10360.034,0.036,0.988,0.192,-1.099,-1.984,-0.031,26.667,295.000,0.000
9846.391,9799.721,10071.696,9812.327,9921.314,10074.200,10155.382,10360.034,0.036,0.988,0.192,-1.099,-1.984,-0.031,26.667,296.000,0.000
9846.391,9799.721,10071.696,9812.327,9921.314,10074.200,10155.382,10360.034,0.036,0.988,0.192,-1.099,-1.984,-0.031,26.667,297.000,0.000
9846.391,9799.721,10071.696,9812.327,9921.314,10074.200,10155.382,10360.034,0.036,0.988,0.192,-1.099,-1.984,-0.031,26.667,298.000,0.000
9846.391,9799.721,10071.696,9812.327,9921.314,10074.200,10155.382,10360.034,0.036,0.988,0.192,-1.099,-1.984,-0.031,26.667,299.000,0.000
9846.391,9799.721,10071.696,9812.327,9921.314,10074.200,10155.382,10360.034,0.036,0.988,0.192,-1.099,-1.984,-0.031,26.667,300.000,0.000
9846.391,9799.721,10071.696,9812.327,9921.314,10074.200,10155.382,10360.034,0.036,0.988,0.192,-1.099,-1.984,-0.031,26.667,301.000,0.000
9846.391,9799.721,10071.696,9812.327,9921.314,10074.200,10155.382,10360.034,0.036,0.988,0.192,-1.099,-1.984,-0.031,26.667,302.000,0.000
9846.391,9799.721,10071.696,9812.327,9921.314,10074.200,10155.382,10360.034,0.036,0.988,0.192,-1.099,-1.984,-0.031,26.667,303.000,0.000
9846.391,9799.721,10071.696,9812.327,9921.314,10074.200,10155.382,10360.034,0.036,0.988,0.192,-1.099,-1.984,-0.031,26.667,304.000,0.000
9846.391,9799.721,10071.696,9812.327,9921.314,10074.200,10155.382,10360.034,0.036,0.988,0.192,-1.099,-1.984,-0.031,26.667,305.000,0.000
9846.391,9799.721,10071.696,9812.327,9921.314,10074.200,10155.382,10360.034,0.036,0.988,0.192,-1.099,-1.984,-0.031,26.667,306.000,0.000
9846.391,9799.721,10071.696,9812.327,9921.314,10074.200,10155.382,10360.034,0.036,0.988,0.192,-1.099,-1.984,-0.031,26.667,307.000,0.000
13362.678,13316.634,13593.527,13333.442,13443.949,13596.209,13679.805,13885.799,0.031,0.994,0.179,2.197,-1.770,-1.129,26.667,308.000,1.000
13482.395,13436.350,13712.886,13452.890,13563.665,13716.193,13799.163,14005.246,0.029,0.993,0.178,2.014,-1.831,-1.099,26.667,309.000,1.000
13636.264,13590.130,13867.560,13607.117,13717.624,13870.600,13954.105,14159.920,0.026,0.989,0.177,1.984,-1.953,-1.190,26.667,310.000,1.000
13821.604,13775.738,14053.079,13792.547,13903.501,14056.029,14139.625,14345.439,0.024,0.986,0.174,1.892,-2.075,-1.190,26.667,311.000,1.000
14007.392,13961.705,14238.956,13978.871,14089.735,14242.175,14325.771,14531.675,0.021,0.983,0.175,2.045,-2.258,-1.160,26.667,312.000,1.000
14129.611,14083.745,14361.712,14101.537,14212.045,14365.109,14448.437,14654.609,0.017,0.981,0.174,2.106,-2.594,-1.282,26.667,313.000,1.000
14276.775,14231.267,14509.322,14248.880,14359.477,14512.452,14596.405,14802.310,0.012,0.979,0.175,2.289,-2.930,-1.312,26.667,314.000,1.000
14454.963,14409.365,14687.601,14427.068,14537.665,14690.372,14774.683,14980.408,0.008,0.976,0.175,2.502,-3.174,-1.312,26.667,315.000,1.000
14647.546,14602.127,14880.720,14619.919,14730.694,14883.491,14967.444,15173.616,0.002,0.974,0.175,2.899,-3.571,-1.190,26.667,316.000,1.000
14773.609,14727.923,15006.604,14746.072,14856.848,15009.912,15093.598,15299.948,-0.005,0.973,0.173,3.296,-4.120,-1.129,26.667,317.000,1.000
14773.609,14727.923,15006.604,14746.072,14856.848,15009.912,15093.598,15299.948,-0.005,0.973,0.173,3.296,-4.120,-1.129,26.667,318.000,0.000
14773.609,14727.923,15006.604,14746.072,14856.848,15009.912,15093.598,15299.948,-0.005,0.973,0.173,3.296,-4.120,-1.129,26.667,319.000,0.000
15288.951,15243.622,15521.142,15260.699,15368.256,15520.784,15610.280,15816.721,-0.025,0.968,0.185,4.395,-6.378,-0.244,26.667,320.000,1.000
15423.509,15378.090,15650.692,15389.803,15493.246,15645.238,15746.895,15953.066,-0.031,0.968,0.183,5.035,-7.416,0.244,26.667,321.000,1.000
15549.752,15504.154,15764.954,15503.350,15625.748,15777.472,15875.908,16082.170,-0.040,0.972,0.183,5.524,-8.606,0.946,26.667,322.000,1.000
15701.743,15655.521,15942.069,15680.912,15804.025,15957.001,16038.271,16245.070,-0.044,0.978,0.182,5.920,-9.857,1.801,26.667,323.000,1.000
15907.469,15861.425,16132.060,15871.170,16000.631,16153.875,16212.168,16418.787,-0.048,0.984,0.184,6.134,-11.322,2.777,26.667,324.000,1.000
16068.759,16023.430,16302.290,16040.954,16148.778,16301.843,16380.521,16586.963,-0.049,0.993,0.186,6.470,-13.000,3.723,26.667,325.000,1.000
16176.137,16131.255,16434.434,16173.365,16259.196,16412.262,16520.801,16727.689,-0.049,0.999,0.185,6.439,-14.557,4.852,26.667,326.000,1.000
16334.119,16289.595,16598.854,16337.517,16433.004,16585.801,16685.846,16893.002,-0.048,1.006,0.185,6.317,-16.235,5.859,26.667,327.000,1.000
16561.213,16516.063,16799.035,16537.430,16648.742,16800.912,16886.207,17093.184,-0.043,1.011,0.184,6.226,-17.914,6.927,26.667,328.000,1.000
16729.387,16684.148,16964.617,16702.924,16814.414,16966.584,17051.609,17258.855,-0.038,1.015,0.184,5.798,-19.623,7.904,26.667,329.000,1.000
16729.387,16684.148,16964.617,16702.924,16814.414,16966.584,17051.609,17258.855,-0.038,1.015,0.184,5.798,-19.623,7.904,26.667,330.000,0.000
16729.387,16684.148,16964.617,16702.924,16814.414,16966.584,17051.609,17258.855,-0.038,1.015,0.184,5.798,-19.623,7.904,26.667,331.000,0.000
16729.387,16684.148,16964.617,16702.924,16814.414,16966.584,17051.609,17258.855,-0.038,1.015,0.184,5.798,-19.623,7.904,26.667,332.000,0.000
16729.387,16684.148,16964.617,16702.924,16814.414,16966.584,17051.609,17258.855,-0.038,1.015,0.184,5.798,-19.623,7.904,26.667,333.000,0.000
16729.387,16684.148,16964.617,16702.924,16814.414,16966.584,17051.609,17258.855,-0.038,1.015,0.184,5.798,-19.623,7.904,26.667,334.000,0.000
16729.387,16684.148,16964.617,16702.924,16814.414,16966.584,17051.609,17258.855,-0.038,1.015,0.184,5.798,-19.623,7.904,26.667,335.000,0.000
16729.387,16684.148,16964.617,16702.924,16814.414,16966.584,17051.609,17258.855,-0.038,1.015,0.184,5.798,-19.623,7.904,26.667,336.000,0.000
16729.387,16684.148,16964.617,16702.924,16814.414,16966.584,17051.609,17258.855,-0.038,1.015,0.184,5.798,-19.623,7.904,26.667,337.000,0.000
16729.387,16684.148,16964.617,16702.924,16814.414,16966.584,17051.609,17258.855,-0.038,1.015,0.184,5.798,-19.623,7.904,26.667,338.000,0.000
16729.387,16684.148,16964.617,16702.924,16814.414,16966.584,17051.609,17258.855,-0.038,1.015,0.184,5.798,-19.623,7.904,26.667,339.000,0.000
16729.387,16684.148,16964.617,16702.924,16814.414,16966.584,17051.609,17258.855,-0.038,1.015,0.184,5.798,-19.623,7.904,26.667,340.000,0.000
16729.387,16684.148,16964.617,16702.924,16814.414,16966.584,17051.609,17258.855,-0.038,1.015,0.184,5.798,-19.623,7.904,26.667,341.000,0.000
16729.387,16684.148,16964.617,16702.924,16814.414,16966.584,17051.609,17258.855,-0.038,1.015,0.184,5.798,-19.623,7.904,26.667,342.000,0.000
16729.387,16684.148,16964.617,16702.924,16814.414,16966.584,17051.609,17258.855,-0.038,1.015,0.184,5.798,-19.623,7.904,26.667,343.000,0.000
16729.387,16684.148,16964.617,16702.924,16814.414,16966.584,17051.609,17258.855,-0.038,1.015,0.184,5.798,-19.623,7.904,26.667,344.000,0.000
16729.387,16684.148,16964.617,16702.924,16814.414,16966.584,17051.609,17258.855,-0.038,1.015,0.184,5.798,-19.623,7.904,26.667,345.000,0.000
16729.387,16684.148,16964.617,16702.924,16814.414,16966.584,17051.609,17258.855,-0.038,1.015,0.184,5.798,-19.623,7.904,26.667,346.000,0.000
19495.281,19450.400,19731.494,19468.996,19582.543,19734.893,19819.113,20027.432,0.046,1.000,0.160,2.197,-33.966,17.883,26.667,347.000,1.000
19649.240,19604.627,19886.170,19623.223,19736.859,19889.477,19972.982,20181.391,0.051,1.001,0.161,2.075,-34.332,17.914,26.667,348.000,1.000
19835.834,19791.219,20072.762,19809.816,19923.184,20076.158,20159.754,20367.982,0.058,1.000,0.164,1.801,-34.729,17.944,26.667,349.000,1.000
19977.811,19932.840,20214.740,19951.436,20065.520,20217.959,20301.732,20510.051,0.064,0.999,0.167,1.526,-35.034,17.761,26.667,350.000,1.000
20083.133,20037.803,20319.436,20056.311,20170.482,20322.922,20406.785,20615.104,0.072,0.996,0.163,1.129,-35.065,17.639,26.667,351.000,1.000
20228.598,20183.984,20465.438,20202.580,20316.127,20468.834,20552.697,20761.195,0.076,0.991,0.163,0.885,-35.004,17.426,26.667,352.000,1.000
20404.908,20360.025,20641.658,20378.355,20492.707,20645.234,20728.563,20937.416,0.082,0.987,0.161,0.610,-34.729,17.334,26.667,353.000,1.000
20558.957,20514.074,20796.154,20532.492,20646.664,20799.014,20882.967,21091.732,0.085,0.984,0.158,0.549,-34.424,17.029,26.667,354.000,1.000
20654.623,20609.918,20891.371,20627.889,20742.330,20895.037,20978.365,21187.398,0.081,0.979,0.157,0.610,-33.997,16.724,26.667,355.000,1.000
20786.318,20741.795,21023.516,20760.123,20874.385,21027.449,21110.420,21319.453,0.075,0.975,0.158,0.732,-33.844,16.418,26.667,356.000,1.000
20950.738,20906.660,21188.383,20925.078,21039.072,21191.959,21275.285,21484.408,0.070,0.973,0.159,0.946,-33.661,16.083,26.667,357.000,1.000
21110.598,21066.609,21347.973,21084.848,21199.289,21351.818,21435.234,21644.268,0.065,0.970,0.159,1.343,-33.722,15.808,26.667,358.000,1.000
21199.469,21155.570,21437.201,21173.361,21288.070,21440.600,21524.373,21733.049,0.068,0.971,0.158,1.801,-33.844,15.656,26.667,359.000,1.000
21316.324,21272.424,21553.699,21289.859,21404.836,21557.633,21640.424,21849.725,0.070,0.974,0.158,2.045,-34.180,15.320,26.667,360.000,1.000
21466.348,21422.002,21703.365,21438.990,21554.951,21707.479,21790.092,21999.303,0.073,0.979,0.157,2.319,-34.424,15.106,26.667,361.000,1.000
21466.348,21422.002,21703.365,21438.990,21554.951,21707.479,21790.092,21999.303,0.073,0.979,0.157,2.319,-34.424,15.106,26.667,362.000,0.000
21466.348,21422.002,21703.365,21438.990,21554.951,21707.479,21790.092,21999.303,0.073,0.979,0.157,2.319,-34.424,15.106,26.667,363.000,0.000
21466.348,21422.002,21703.365,21438.990,21554.951,21707.479,21790.092,21999.303,0.073,0.979,0.157,2.319,-34.424,15.106,26.667,364.000,0.000
21466.348,21422.002,21703.365,21438.990,21554.951,21707.479,21790.092,21999.303,0.073,0.979,0.157,2.319,-34.424,15.106,26.667,365.000,0.000
21466.348,21422.002,21703.365,21438.990,21554.951,21707.479,21790.092,21999.303,0.073,0.979,0.157,2.319,-34.424,15.106,26.667,366.000,0.000
21466.348,21422.002,21703.365,21438.990,21554.951,21707.479,21790.092,21999.303,0.073,0.979,0.157,2.319,-34.424,15.106,26.667,367.000,0.000
21466.348,21422.002,21703.365,21438.990,21554.951,21707.479,21790.092,21999.303,0.073,0.979,0.157,2.319,-34.424,15.106,26.667,368.000,0.000
21466.348,21422.002,21703.365,21438.990,21554.951,21707.479,21790.092,21999.303,0.073,0.979,0.157,2.319,-34.424,15.106,26.667,369.000,0.000
21466.348,21422.002,21703.365,21438.990,21554.951,21707.479,21790.092,21999.303,0.073,0.979,0.157,2.319,-34.424,15.106,26.667,370.000,0.000
21466.348,21422.002,21703.365,21438.990,21554.951,21707.479,21790.092,21999.303,0.073,0.979,0.157,2.319,-34.424,15.106,26.667,371.000,0.000
22782.150,22738.342,23020.330,22755.328,22871.379,23023.639,23106.609,23316.268,0.144,0.993,0.151,1.373,-31.464,13.153,26.667,372.000,1.000
22905.979,22861.813,23143.891,22879.068,22995.117,23147.557,23230.258,23440.186,0.148,0.993,0.147,1.251,-30.365,12.787,26.667,373.000,1.000
23061.904,23017.559,23299.816,23034.904,23150.955,23303.572,23386.273,23596.111,0.151,0.990,0.148,1.129,-29.327,12.451,26.667,374.000,1.000
23179.387,23135.309,23417.566,23152.564,23268.525,23421.410,23504.111,23713.951,0.150,0.992,0.149,1.099,-28.198,12.085,26.667,375.000,1.000
23250.555,23206.297,23488.824,23223.732,23339.604,23492.043,23575.191,23784.850,0.150,0.992,0.148,0.885,-27.069,11.536,26.667,376.000,1.000
23361.240,23317.162,23599.240,23334.238,23450.379,23602.818,23685.967,23895.625,0.151,0.993,0.149,0.671,-25.848,11.017,26.667,377.000,1.000
23505.453,23461.732,23743.455,23478.184,23595.307,23747.299,23829.822,24039.838,0.151,0.995,0.147,0.366,-24.658,10.437,26.667,378.000,1.000
23637.238,23593.430,23875.508,23609.971,23727.271,23879.354,23962.055,24171.982,0.153,0.996,0.146,0.122,-23.499,9.766,26.667,379.000,1.000
23704.563,23660.932,23942.922,23677.293,23794.416,23946.766,24029.557,24239.217,0.157,0.998,0.144,-0.122,-22.522,9.094,26.667,380.000,1.000
23810.152,23766.432,24048.332,23782.973,23899.828,24052.088,24134.879,24344.895,0.161,0.999,0.150,-0.397,-21.393,8.270,26.667,381.000,1.000
23949.717,23905.996,24188.254,23922.627,24039.393,24191.830,24274.531,24484.459,0.163,0.999,0.146,-0.763,-20.172,7.446,26.667,382.000,1.000
24093.035,24049.316,24331.395,24065.498,24182.711,24335.328,24417.584,24627.779,0.168,1.000,0.148,-1.038,-18.890,6.653,26.667,383.000,1.000
24163.578,24119.947,24402.205,24136.309,24253.611,24406.496,24488.572,24698.680,0.171,1.002,0.148,-1.434,-17.487,5.890,26.667,384.000,1.000
24258.439,24214.898,24497.066,24230.990,24348.203,24501.447,24583.434,24793.361,0.174,1.001,0.154,-1.953,-16.022,5.035,26.667,385.000,1.000
24388.168,24344.627,24626.707,24360.988,24477.934,24631.266,24712.805,24923.180,0.176,1.001,0.155,-2.441,-14.465,4.181,26.667,386.000,1.000
24539.176,24495.635,24777.893,24511.729,24629.121,24782.186,24863.902,25074.010,0.177,1.003,0.154,-2.991,-12.817,3.235,26.667,387.000,1.000
24615.352,24571.811,24853.711,24587.547,24705.295,24858.182,24939.898,25150.006,0.178,1.007,0.156,-3.418,-11.169,2.319,26.667,388.000,1.000
24701.361,24657.820,24939.898,24673.824,24791.305,24944.459,25026.266,25236.820,0.181,1.005,0.153,-3.815,-9.430,1.343,26.667,389.000,1.000
24824.207,24780.576,25063.012,24796.490,24914.418,25067.305,25149.021,25359.486,0.178,1.004,0.156,-4.242,-7.812,0.458,26.667,390.000,1.000
24976.645,24933.283,25215.809,24949.107,25066.857,25219.742,25301.818,25511.924,0.179,1.005,0.156,-4.791,-6.226,-0.519,26.667,391.000,1.000
24976.645,24933.283,25215.809,24949.107,25066.857,25219.742,25301.818,25511.924,0.179,1.005,0.156,-4.791,-6.226,-0.519,26.667,392.000,0.000
24976.645,24933.283,25215.809,24949.107,25066.857,25219.742,25301.818,25511.924,0.179,1.005,0.156,-4.791,-6.226,-0.519,26.667,393.000,0.000
24976.645,24933.283,25215.809,24949.107,25066.857,25219.742,25301.818,25511.924,0.179,1.005,0.156,-4.791,-6.226,-0.519,26.667,394.000,0.000
24976.645,24933.283,25215.809,24949.107,25066.857,25219.742,25301.818,25511.924,0.179,1.005,0.156,-4.791,-6.226,-0.519,26.667,395.000,0.000
24976.645,24933.283,25215.809,24949.107,25066.857,25219.742,25301.818,25511.924,0.179,1.005,0.156,-4.791,-6.226,-0.519,26.667,396.000,0.000
24976.645,24933.283,25215.809,24949.107,25066.857,25219.742,25301.818,25511.924,0.179,1.005,0.156,-4.791,-6.226,-0.519,26.667,397.000,0.000
24976.645,24933.283,25215.809,24949.107,25066.857,25219.742,25301.818,25511.924,0.179,1.005,0.156,-4.791,-6.226,-0.519,26.667,398.000,0.000
24976.645,24933.283,25215.809,24949.107,25066.857,25219.742,25301.818,25511.924,0.179,1.005,0.156,-4.791,-6.226,-0.519,26.667,399.000,0.000
24976.645,24933.283,25215.809,24949.107,25066.857,25219.742,25301.818,25511.924,0.179,1.005,0.156,-4.791,-6.226,-0.519,26.667,400.000,0.000
24976.645,24933.283,25215.809,24949.107,25066.857,25219.742,25301.818,25511.924,0.179,1.005,0.156,-4.791,-6.226,-0.519,26.667,401.000,0.000
24976.645,24933.283,25215.809,24949.107,25066.857,25219.742,25301.818,25511.924,0.179,1.005,0.156,-4.791,-6.226,-0.519,26.667,402.000,0.000
24976.645,24933.283,25215.809,24949.107,25066.857,25219.742,25301.818,25511.924,0.179,1.005,0.156,-4.791,-6.226,-0.519,26.667,403.000,0.000
24976.645,24933.283,25215.809,24949.107,25066.857,25219.742,25301.818,25511.924,0.179,1.005,0.156,-4.791,-6.226,-0.519,26.667,404.000,0.000
24976.645,24933.283,25215.809,24949.107,25066.857,25219.742,25301.818,25511.924,0.179,1.005,0.156,-4.791,-6.226,-0.519,26.667,405.000,0.000
24976.645,24933.283,25215.809,24949.107,25066.857,25219.742,25301.818,25511.924,0.179,1.005,0.156,-4.791,-6.226,-0.519,26.667,406.000,0.000
24976.645,24933.283,25215.809,24949.107,25066.857,25219.742,25301.818,25511.924,0.179,1.005,0.156,-4.791,-6.226,-0.519,26.667,407.000,0.000
24976.645,24933.283,25215.809,24949.107,25066.857,25219.742,25301.818,25511.924,0.179,1.005,0.156,-4.791,-6.226,-0.519,26.667,408.000,0.000
24976.645,24933.283,25215.809,24949.107,25066.857,25219.742,25301.818,25511.924,0.179,1.005,0.156,-4.791,-6.226,-0.519,26.667,409.000,0.000
24976.645,24933.283,25215.809,24949.107,25066.857,25219.742,25301.818,25511.924,0.179,1.005,0.156,-4.791,-6.226,-0.519,26.667,410.000,0.000
24976.645,24933.283,25215.809,24949.107,25066.857,25219.742,25301.818,25511.924,0.179,1.005,0.156,-4.791,-6.226,-0.519,26.667,411.000,0.000
24976.645,24933.283,25215.809,24949.107,25066.857,25219.742,25301.818,25511.924,0.179,1.005,0.156,-4.791,-6.226,-0.519,26.667,412.000,0.000
24976.645,24933.283,25215.809,24949.107,25066.857,25219.742,25301.818,25511.924,0.179,1.005,0.156,-4.791,-6.226,-0.519,26.667,413.000,0.000
24976.645,24933.283,25215.809,24949.107,25066.857,25219.742,25301.818,25511.924,0.179,1.005,0.156,-4.791,-6.226,-0.519,26.667,414.000,0.000
24976.645,24933.283,25215.809,24949.107,25066.857,25219.742,25301.818,25511.924,0.179,1.005,0.156,-4.791,-6.226,-0.519,26.667,415.000,0.000
24976.645,24933.283,25215.809,24949.107,25066.857,25219.742,25301.818,25511.924,0.179,1.005,0.156,-4.791,-6.226,-0.519,26.667,416.000,0.000
24976.645,24933.283,25215.809,24949.107,25066.857,25219.742,25301.818,25511.924,0.179,1.005,0.156,-4.791,-6.226,-0.519,26.667,417.000,0.000
24976.645,24933.283,25215.809,24949.107,25066.857,25219.742,25301.818,25511.924,0.179,1.005,0.156,-4.791,-6.226,-0.519,26.667,418.000,0.000
24976.645,24933.283,25215.809,24949.107,25066.857,25219.742,25301.818,25511.924,0.179,1.005,0.156,-4.791,-6.226,-0.519,26.667,419.000,0.000
24976.645,24933.283,25215.809,24949.107,25066.857,25219.742,25301.818,25511.924,0.179,1.005,0.156,-4.791,-6.226,-0.519,26.667,420.000,0.000
28204.148,28161.680,28443.848,28174.643,28295.344,28448.229,28528.785,28740.410,0.055,0.987,0.192,-2.441,13.519,-11.658,26.667,421.000,1.000
28267.447,28225.248,28507.238,28237.943,28358.822,28511.350,28591.996,28803.891,0.047,0.986,0.196,-2.075,13.336,-11.230,26.667,422.000,1.000
28372.322,28329.943,28612.291,28342.639,28463.695,28616.582,28697.049,28908.854,0.039,0.985,0.194,-1.648,12.909,-10.864,26.667,423.000,1.000
28512.959,28470.223,28752.123,28482.650,28604.154,28756.951,28837.148,29049.133,0.031,0.988,0.196,-1.221,12.177,-10.376,26.667,424.000,1.000
28636.072,28593.426,28875.236,28605.586,28727.000,28880.154,28960.174,29172.156,0.025,0.991,0.199,-0.763,11.475,-9.979,26.667,425.000,1.000
28696.869,28654.223,28935.766,28666.383,28787.797,28940.951,29020.971,29232.865,0.023,0.991,0.199,-0.336,10.651,-9.491,26.667,426.000,1.000
28795.932,28753.107,29035.006,28765.623,28886.859,29039.924,29120.568,29332.105,0.021,0.995,0.199,0.061,9.796,-8.911,26.667,427.000,1.000
28929.059,28886.592,29168.492,28898.662,29020.523,29173.498,29253.607,29465.055,0.020,0.999,0.201,0.427,8.911,-8.301,26.667,428.000,1.000
29065.674,29023.205,29305.195,29035.275,29157.137,29310.023,29390.131,29601.848,0.018,1.004,0.202,0.702,7.812,-7.721,26.667,429.000,1.000
29130.047,29087.221,29369.211,29099.648,29221.152,29373.949,29454.236,29666.398,0.018,1.005,0.203,0.885,6.744,-7.141,26.667,430.000,1.000
29130.047,29087.221,29369.211,29099.648,29221.152,29373.949,29454.236,29666.398,0.018,1.005,0.203,0.885,6.744,-7.141,26.667,431.000,0.000
29130.047,29087.221,29369.211,29099.648,29221.152,29373.949,29454.236,29666.398,0.018,1.005,0.203,0.885,6.744,-7.141,26.667,432.000,0.000
29130.047,29087.221,29369.211,29099.648,29221.152,29373.949,29454.236,29666.398,0.018,1.005,0.203,0.885,6.744,-7.141,26.667,433.000,0.000
29130.047,29087.221,29369.211,29099.648,29221.152,29373.949,29454.236,29666.398,0.018,1.005,0.203,0.885,6.744,-7.141,26.667,434.000,0.000
29130.047,29087.221,29369.211,29099.648,29221.152,29373.949,29454.236,29666.398,0.018,1.005,0.203,0.885,6.744,-7.141,26.667,435.000,0.000
29130.047,29087.221,29369.211,29099.648,29221.152,29373.949,29454.236,29666.398,0.018,1.005,0.203,0.885,6.744,-7.141,26.667,436.000,0.000
29130.047,29087.221,29369.211,29099.648,29221.152,29373.949,29454.236,29666.398,0.018,1.005,0.203,0.885,6.744,-7.141,26.667,437.000,0.000
29130.047,29087.221,29369.211,29099.648,29221.152,29373.949,29454.236,29666.398,0.018,1.005,0.203,0.885,6.744,-7.141,26.667,438.000,0.000
29130.047,29087.221,29369.211,29099.648,29221.152,29373.949,29454.236,29666.398,0.018,1.005,0.203,0.885,6.744,-7.141,26.667,439.000,0.000
29130.047,29087.221,29369.211,29099.648,29221.152,29373.949,29454.236,29666.398,0.018,1.005,0.203,0.885,6.744,-7.141,26.667,440.000,0.000
30349.559,30307.090,30589.348,30318.355,30441.199,30593.996,30673.836,30886.357,0.040,0.995,0.191,2.197,-2.167,0.244,26.667,441.000,1.000
30451.035,30408.119,30691.092,30419.742,30542.498,30695.563,30775.314,30987.744,0.037,0.996,0.188,2.472,-2.686,0.732,26.667,442.000,1.000
30521.666,30479.197,30761.188,30490.105,30613.309,30766.193,30846.035,31058.287,0.035,0.995,0.188,2.655,-3.265,1.160,26.667,443.000,1.000
30633.783,30591.762,30873.125,30602.133,30725.604,30878.936,30957.973,31170.492,0.035,0.995,0.189,2.838,-3.906,1.495,26.667,444.000,1.000
30779.963,30738.389,31019.662,30748.313,30872.053,31025.027,31104.063,31316.852,0.034,0.995,0.188,2.930,-4.517,1.770,26.667,445.000,1.000
30895.744,30853.725,31135.445,30863.916,30987.566,31140.631,31219.846,31432.723,0.036,0.994,0.186,3.113,-5.280,2.045,26.667,446.000,1.000
30962.264,30920.332,31202.232,30930.613,31054.354,31207.328,31286.543,31499.332,0.039,0.992,0.181,3.113,-5.829,2.228,26.667,447.000,1.000
31067.674,31026.012,31307.553,31035.846,31159.764,31313.098,31392.043,31604.742,0.042,0.991,0.180,3.174,-6.531,2.411,26.667,448.000,1.000
31206.971,31165.217,31447.029,31174.873,31299.061,31452.303,31531.518,31744.039,0.048,0.989,0.180,3.265,-7.111,2.594,26.667,449.000,1.000
31339.650,31297.451,31579.352,31307.018,31431.561,31584.805,31663.840,31876.182,0.054,0.986,0.180,3.204,-7.477,2.655,26.667,450.000,1.000
31408.137,31366.293,31647.926,31375.861,31500.225,31653.648,31732.146,31944.936,0.059,0.984,0.177,3.326,-7.751,2.777,26.667,451.000,1.000
31507.646,31465.893,31747.346,31475.549,31599.736,31752.979,31831.658,32044.445,0.067,0.979,0.172,3.632,-8.057,2.991,26.667,452.000,1.000
31639.969,31598.127,31879.311,31607.424,31731.701,31884.854,31963.621,32176.500,0.072,0.980,0.171,3.967,-8.148,2.930,26.667,453.000,1.000
31784.004,31742.072,32023.613,31751.459,31875.467,32028.799,32107.656,32320.445,0.074,0.982,0.169,4.425,-8.179,2.930,26.667,454.000,1.000
31855.082,31813.418,32094.604,31822.807,31946.813,32100.146,32178.734,32392.061,0.077,0.984,0.167,4.730,-8.026,2.899,26.667,455.000,1.000
31855.082,31813.418,32094.604,31822.807,31946.813,32100.146,32178.734,32392.061,0.077,0.984,0.167,4.730,-8.026,2.899,26.667,456.000,0.000
31855.082,31813.418,32094.604,31822.807,31946.813,32100.146,32178.734,32392.061,0.077,0.984,0.167,4.730,-8.026,2.899,26.667,457.000,0.000
31855.082,31813.418,32094.604,31822.807,31946.813,32100.146,32178.734,32392.061,0.077,0.984,0.167,4.730,-8.026,2.899,26.667,458.000,0.000
31855.082,31813.418,32094.604,31822.807,31946.813,32100.146,32178.734,32392.061,0.077,0.984,0.167,4.730,-8.026,2.899,26.667,459.000,0.000
31855.082,31813.418,32094.604,31822.807,31946.813,32100.146,32178.734,32392.061,0.077,0.984,0.167,4.730,-8.026,2.899,26.667,460.000,0.000
31855.082,31813.418,32094.604,31822.807,31946.813,32100.146,32178.734,32392.061,0.077,0.984,0.167,4.730,-8.026,2.899,26.667,461.000,0.000
31855.082,31813.418,32094.604,31822.807,31946.813,32100.146,32178.734,32392.061,0.077,0.984,0.167,4.730,-8.026,2.899,26.667,462.000,0.000
31855.082,31813.418,32094.604,31822.807,31946.813,32100.146,32178.734,32392.061,0.077,0.984,0.167,4.730,-8.026,2.899,26.667,463.000,0.000
31855.082,31813.418,32094.604,31822.807,31946.813,32100.146,32178.734,32392.061,0.077,0.984,0.167,4.730,-8.026,2.899,26.667,464.000,0.000
31855.082,31813.418,32094.604,31822.807,31946.813,32100.146,32178.734,32392.061,0.077,0.984,0.167,4.730,-8.026,2.899,26.667,465.000,0.000
31855.082,31813.418,32094.604,31822.807,31946.813,32100.146,32178.734,32392.061,0.077,0.984,0.167,4.730,-8.026,2.899,26.667,466.000,0.000
31855.082,31813.418,32094.604,31822.807,31946.813,32100.146,32178.734,32392.061,0.077,0.984,0.167,4.730,-8.026,2.899,26.667,467.000,0.000
31855.082,31813.418,32094.604,31822.807,31946.813,32100.146,32178.734,32392.061,0.077,0.984,0.167,4.730,-8.026,2.899,26.667,468.000,0.000
31855.082,31813.418,32094.604,31822.807,31946.813,32100.146,32178.734,32392.061,0.077,0.984,0.167,4.730,-8.026,2.899,26.667,469.000,0.000
31855.082,31813.418,32094.604,31822.807,31946.813,32100.146,32178.734,32392.061,0.077,0.984,0.167,4.730,-8.026,2.899,26.667,470.000,0.000
31855.082,31813.418,32094.604,31822.807,31946.813,32100.146,32178.734,32392.061,0.077,0.984,0.167,4.730,-8.026,2.899,26.667,471.000,0.000
31855.082,31813.418,32094.604,31822.807,31946.813,32100.146,32178.734,32392.061,0.077,0.984,0.167,4.730,-8.026,2.899,26.667,472.000,0.000
31855.082,31813.418,32094.604,31822.807,31946.813,32100.146,32178.734,32392.061,0.077,0.984,0.167,4.730,-8.026,2.899,26.667,473.000,0.000
31855.082,31813.418,32094.604,31822.807,31946.813,32100.146,32178.734,32392.061,0.077,0.984,0.167,4.730,-8.026,2.899,26.667,474.000,0.000
31855.082,31813.418,32094.604,31822.807,31946.813,32100.146,32178.734,32392.061,0.077,0.984,0.167,4.730,-8.026,2.899,26.667,475.000,0.000
31855.082,31813.418,32094.604,31822.807,31946.813,32100.146,32178.734,32392.061,0.077,0.984,0.167,4.730,-8.026,2.899,26.667,476.000,0.000
31855.082,31813.418,32094.604,31822.807,31946.813,32100.146,32178.734,32392.061,0.077,0.984,0.167,4.730,-8.026,2.899,26.667,477.000,0.000
31855.082,31813.418,32094.604,31822.807,31946.813,32100.146,32178.734,32392.061,0.077,0.984,0.167,4.730,-8.026,2.899,26.667,478.000,0.000
31855.082,31813.418,32094.604,31822.807,31946.813,32100.146,32178.734,32392.061,0.077,0.984,0.167,4.730,-8.026,2.899,26.667,479.000,0.000
31855.082,31813.418,32094.604,31822.807,31946.813,32100.146,32178.734,32392.061,0.077,0.984,0.167,4.730,-8.026,2.899,26.667,480.000,0.000
31855.082,31813.418,32094.604,31822.807,31946.813,32100.146,32178.734,32392.061,0.077,0.984,0.167,4.730,-8.026,2.899,26.667,481.000,0.000
31855.082,31813.418,32094.604,31822.807,31946.813,32100.146,32178.734,32392.061,0.077,0.984,0.167,4.730,-8.026,2.899,26.667,482.000,0.000
31855.082,31813.418,32094.604,31822.807,31946.813,32100.146,32178.734,32392.061,0.077,0.984,0.167,4.730,-8.026,2.899,26.667,483.000,0.000
31855.082,31813.418,32094.604,31822.807,31946.813,32100.146,32178.734,32392.061,0.077,0.984,0.167,4.730,-8.026,2.899,26.667,484.000,0.000
31855.082,31813.418,32094.604,31822.807,31946.813,32100.146,32178.734,32392.061,0.077,0.984,0.167,4.730,-8.026,2.899,26.667,485.000,0.000
35316.742,35276.063,35557.156,35281.605,35410.172,35563.238,35640.125,35854.703,0.070,0.989,0.137,0.732,-16.479,6.409,26.667,486.000,1.000
35470.254,35429.930,35711.203,35435.383,35563.773,35717.016,35793.727,36008.215,0.075,0.993,0.135,0.458,-16.968,6.592,26.667,487.000,1.000
35575.305,35534.535,35816.078,35540.168,35668.824,35822.336,35898.246,36113.270,0.085,0.997,0.134,0.061,-17.365,6.775,26.667,488.000,1.000
35652.555,35612.051,35893.059,35617.418,35746.520,35899.766,35975.313,36190.516,0.094,0.996,0.134,-0.366,-17.578,6.927,26.667,489.000,1.000
35769.141,35728.906,36009.645,35733.824,35863.020,36016.172,36092.168,36306.922,0.097,0.997,0.134,-0.641,-17.731,7.202,26.667,490.000,1.000
35920.688,35880.543,36161.457,35885.727,36014.652,36167.895,36244.340,36459.094,0.099,0.998,0.139,-0.824,-17.517,7.355,26.667,491.000,1.000
36042.277,36001.867,36282.961,36007.141,36136.246,36289.758,36365.664,36580.777,0.099,0.997,0.141,-1.160,-17.303,7.355,26.667,492.000,1.000
36117.113,36076.613,36357.707,36081.797,36210.723,36364.500,36440.320,36655.609,0.100,0.999,0.138,-1.648,-17.181,7.263,26.667,493.000,1.000
36227.262,36186.852,36468.035,36192.215,36321.230,36474.383,36550.738,36765.582,0.102,0.998,0.140,-2.075,-16.907,7.080,26.667,494.000,1.000
36371.832,36331.332,36612.695,36336.605,36466.066,36619.133,36695.574,36910.152,0.103,0.997,0.141,-2.594,-16.663,6.866,26.667,495.000,1.000
36508.359,36468.035,36748.863,36472.594,36602.324,36755.836,36831.742,37046.766,0.106,0.994,0.142,-2.899,-16.479,6.714,26.667,496.000,1.000
36580.688,36539.918,36821.461,36545.016,36674.387,36828.078,36903.984,37119.098,0.108,0.991,0.141,-3.235,-16.266,6.409,26.667,497.000,1.000
36580.688,36539.918,36821.461,36545.016,36674.387,36828.078,36903.984,37119.098,0.108,0.991,0.141,-3.235,-16.266,6.409,26.667,498.000,0.000
36580.688,36539.918,36821.461,36545.016,36674.387,36828.078,36903.984,37119.098,0.108,0.991,0.141,-3.235,-16.266,6.409,26.667,499.000,0.000
36580.688,36539.918,36821.461,36545.016,36674.387,36828.078,36903.984,37119.098,0.108,0.991,0.141,-3.235,-16.266,6.409,26.667,500.000,0.000
36580.688,36539.918,36821.461,36545.016,36674.387,36828.078,36903.984,37119.098,0.108,0.991,0.141,-3.235,-16.266,6.409,26.667,501.000,0.000
36580.688,36539.918,36821.461,36545.016,36674.387,36828.078,36903.984,37119.098,0.108,0.991,0.141,-3.235,-16.266,6.409,26.667,502.000,0.000
36580.688,36539.918,36821.461,36545.016,36674.387,36828.078,36903.984,37119.098,0.108,0.991,0.141,-3.235,-16.266,6.409,26.667,503.000,0.000
36580.688,36539.918,36821.461,36545.016,36674.387,36828.078,36903.984,37119.098,0.108,0.991,0.141,-3.235,-16.266,6.409,26.667,504.000,0.000
36580.688,36539.918,36821.461,36545.016,36674.387,36828.078,36903.984,37119.098,0.108,0.991,0.141,-3.235,-16.266,6.409,26.667,505.000,0.000
36580.688,36539.918,36821.461,36545.016,36674.387,36828.078,36903.984,37119.098,0.108,0.991,0.141,-3.235,-16.266,6.409,26.667,506.000,0.000
36580.688,36539.918,36821.461,36545.016,36674.387,36828.078,36903.984,37119.098,0.108,0.991,0.141,-3.235,-16.266,6.409,26.667,507.000,0.000
36580.688,36539.918,36821.461,36545.016,36674.387,36828.078,36903.984,37119.098,0.108,0.991,0.141,-3.235,-16.266,6.409,26.667,508.000,0.000
36580.688,36539.918,36821.461,36545.016,36674.387,36828.078,36903.984,37119.098,0.108,0.991,0.141,-3.235,-16.266,6.409,26.667,509.000,0.000
36580.688,36539.918,36821.461,36545.016,36674.387,36828.078,36903.984,37119.098,0.108,0.991,0.141,-3.235,-16.266,6.409,26.667,510.000,0.000
36580.688,36539.918,36821.461,36545.016,36674.387,36828.078,36903.984,37119.098,0.108,0.991,0.141,-3.235,-16.266,6.409,26.667,511.000,0.000
36580.688,36539.918,36821.461,36545.016,36674.387,36828.078,36903.984,37119.098,0.108,0.991,0.141,-3.235,-16.266,6.409,26.667,512.000,0.000
36580.688,36539.918,36821.461,36545.016,36674.387,36828.078,36903.984,37119.098,0.108,0.991,0.141,-3.235,-16.266,6.409,26.667,513.000,0.000
36580.688,36539.918,36821.461,36545.016,36674.387,36828.078,36903.984,37119.098,0.108,0.991,0.141,-3.235,-16.266,6.409,26.667,514.000,0.000
36580.688,36539.918,36821.461,36545.016,36674.387,36828.078,36903.984,37119.098,0.108,0.991,0.141,-3.235,-16.266,6.409,26.667,515.000,0.000
36580.688,36539.918,36821.461,36545.016,36674.387,36828.078,36903.984,37119.098,0.108,0.991,0.141,-3.235,-16.266,6.409,26.667,516.000,0.000
36580.688,36539.918,36821.461,36545.016,36674.387,36828.078,36903.984,37119.098,0.108,0.991,0.141,-3.235,-16.266,6.409,26.667,517.000,0.000
36580.688,36539.918,36821.461,36545.016,36674.387,36828.078,36903.984,37119.098,0.108,0.991,0.141,-3.235,-16.266,6.409,26.667,518.000,0.000
36580.688,36539.918,36821.461,36545.016,36674.387,36828.078,36903.984,37119.098,0.108,0.991,0.141,-3.235,-16.266,6.409,26.667,519.000,0.000
36580.688,36539.918,36821.461,36545.016,36674.387,36828.078,36903.984,37119.098,0.108,0.991,0.141,-3.235,-16.266,6.409,26.667,520.000,0.000
36580.688,36539.918,36821.461,36545.016,36674.387,36828.078,36903.984,37119.098,0.108,0.991,0.141,-3.235,-16.266,6.409,26.667,521.000,0.000
36580.688,36539.918,36821.461,36545.016,36674.387,36828.078,36903.984,37119.098,0.108,0.991,0.141,-3.235,-16.266,6.409,26.667,522.000,0.000
36580.688,36539.918,36821.461,36545.016,36674.387,36828.078,36903.984,37119.098,0.108,0.991,0.141,-3.235,-16.266,6.409,26.667,523.000,0.000
36580.688,36539.918,36821.461,36545.016,36674.387,36828.078,36903.984,37119.098,0.108,0.991,0.141,-3.235,-16.266,6.409,26.667,524.000,0.000
36580.688,36539.918,36821.461,36545.016,36674.387,36828.078,36903.984,37119.098,0.108,0.991,0.141,-3.235,-16.266,6.409,26.667,525.000,0.000
39907.969,39868.184,40150.531,39870.863,40004.262,40157.504,40230.996,40447.988,0.095,1.001,0.173,-2.197,-1.831,-6.226,26.667,526.000,1.000
40000.684,39961.164,40243.871,39963.938,40097.691,40250.754,40324.516,40541.508,0.093,1.004,0.173,-2.167,-1.465,-6.104,26.667,527.000,1.000
40127.910,40088.660,40371.363,40091.164,40224.828,40377.980,40451.832,40668.465,0.091,1.006,0.173,-2.319,-1.190,-6.134,26.667,528.000,1.000
40284.016,40244.586,40527.469,40247.180,40380.754,40533.906,40607.578,40824.211,0.088,1.006,0.171,-2.533,-0.977,-6.073,26.667,529.000,1.000
40370.738,40331.223,40613.836,40333.547,40467.477,40620.813,40693.766,40910.488,0.087,1.009,0.172,-2.716,-0.671,-5.981,26.667,530.000,1.000
40452.727,40413.297,40695.914,40415.621,40549.285,40702.887,40775.664,40992.742,0.083,1.008,0.173,-2.838,-0.488,-5.859,26.667,531.000,1.000
40573.781,40534.711,40817.238,40537.035,40670.879,40824.480,40897.258,41114.516,0.082,1.009,0.177,-2.838,-0.214,-5.737,26.667,532.000,1.000
40726.223,40687.063,40969.676,40689.742,40823.586,40976.828,41049.516,41266.867,0.079,1.010,0.178,-2.899,-0.031,-5.554,26.667,533.000,1.000
40823.855,40784.695,41067.668,40787.285,40921.484,41074.371,41147.238,41364.855,0.077,1.008,0.177,-2.930,0.122,-5.493,26.667,534.000,1.000
40896.633,40857.559,41140.535,40860.152,40994.441,41147.328,41220.465,41437.902,0.071,1.006,0.177,-2.991,0.305,-5.371,26.667,535.000,1.000
41008.031,40969.320,41252.203,40971.645,41105.934,41258.996,41331.953,41549.301,0.071,1.003,0.175,-3.021,0.427,-5.249,26.667,536.000,1.000
41154.301,41115.500,41399.098,41117.914,41252.473,41405.355,41478.313,41695.484,0.068,1.000,0.175,-3.082,0.427,-5.219,26.667,537.000,1.000
41265.883,41226.813,41510.410,41229.137,41363.605,41516.758,41589.535,41806.793,0.065,0.999,0.176,-2.869,0.427,-4.974,26.667,538.000,1.000
41330.434,41291.363,41574.781,41293.777,41427.977,41581.309,41653.910,41871.434,0.067,0.997,0.175,-2.655,0.488,-4.883,26.667,539.000,1.000
41437.902,41398.918,41682.340,41401.156,41535.711,41688.867,41761.375,41978.902,0.067,0.996,0.177,-2.533,0.488,-4.730,26.667,540.000,1.000
41578.984,41540.094,41823.512,41542.148,41676.977,41830.039,41902.461,42119.988,0.070,0.995,0.178,-2.350,0.458,-4.730,26.667,541.000,1.000
41706.660,41667.586,41951.008,41669.195,41804.289,41957.715,42029.598,42247.750,0.071,0.996,0.177,-2.319,0.549,-4.578,26.667,542.000,1.000
41769.066,41729.637,42013.594,41731.691,41866.520,42020.207,42092.004,42310.422,0.073,0.999,0.178,-2.197,0.641,-4.272,26.667,543.000,1.000
41769.066,41729.637,42013.594,41731.691,41866.520,42020.207,42092.004,42310.422,0.073,0.999,0.178,-2.197,0.641,-4.272,26.667,544.000,0.000
41769.066,41729.637,42013.594,41731.691,41866.520,42020.207,42092.004,42310.422,0.073,0.999,0.178,-2.197,0.641,-4.272,26.667,545.000,0.000
41769.066,41729.637,42013.594,41731.691,41866.520,42020.207,42092.004,42310.422,0.073,0.999,0.178,-2.197,0.641,-4.272,26.667,546.000,0.000
41769.066,41729.637,42013.594,41731.691,41866.520,42020.207,42092.004,42310.422,0.073,0.999,0.178,-2.197,0.641,-4.272,26.667,547.000,0.000
41769.066,41729.637,42013.594,41731.691,41866.520,42020.207,42092.004,42310.422,0.073,0.999,0.178,-2.197,0.641,-4.272,26.667,548.000,0.000
41769.066,41729.637,42013.594,41731.691,41866.520,42020.207,42092.004,42310.422,0.073,0.999,0.178,-2.197,0.641,-4.272,26.667,549.000,0.000
41769.066,41729.637,42013.594,41731.691,41866.520,42020.207,42092.004,42310.422,0.073,0.999,0.178,-2.197,0.641,-4.272,26.667,550.000,0.000
41769.066,41729.637,42013.594,41731.691,41866.520,42020.207,42092.004,42310.422,0.073,0.999,0.178,-2.197,0.641,-4.272,26.667,551.000,0.000
42704.977,42665.816,42950.309,42668.500,42803.234,42956.301,43027.824,43247.051,0.069,0.999,0.169,-1.862,2.594,-1.923,26.667,552.000,1.000
42819.508,42780.168,43064.930,42783.207,42917.676,43070.742,43142.625,43361.313,0.070,0.996,0.168,-1.831,2.747,-1.678,26.667,553.000,1.000
42963.633,42924.648,43209.410,42927.332,43061.801,43214.953,43286.926,43505.617,0.071,0.995,0.168,-1.770,3.021,-1.404,26.667,554.000,1.000
43041.684,43002.254,43287.195,43004.758,43139.672,43293.098,43364.352,43583.578,0.071,0.993,0.169,-1.801,3.204,-1.251,26.667,555.000,1.000
43106.594,43066.895,43351.566,43069.668,43204.672,43357.738,43429.082,43647.953,0.072,0.990,0.169,-1.740,3.479,-0.854,26.667,556.000,1.000
43215.133,43175.348,43459.750,43177.582,43313.211,43465.918,43537.000,43756.133,0.073,0.988,0.169,-1.770,3.693,-0.641,26.667,557.000,1.000
43351.746,43311.961,43596.902,43314.285,43449.559,43602.535,43673.879,43893.105,0.072,0.986,0.171,-1.740,3.937,-0.275,26.667,558.000,1.000
43442.316,43402.887,43687.738,43405.301,43540.574,43693.730,43764.984,43984.121,0.071,0.982,0.171,-1.709,4.150,-0.183,26.667,559.000,1.000
43497.660,43458.230,43743.082,43460.555,43595.828,43748.805,43820.238,44039.555,0.071,0.979,0.169,-1.556,4.242,0.031,26.667,560.000,1.000
43595.828,43556.133,43841.250,43558.992,43693.730,43846.793,43917.871,44137.633,0.068,0.980,0.168,-1.373,4.517,0.183,26.667,561.000,1.000
43728.063,43688.633,43973.750,43691.227,43826.141,43978.938,44050.016,44269.598,0.065,0.982,0.168,-1.282,4.578,0.244,26.667,562.000,1.000
43834.367,43794.848,44079.789,43797.172,43932.535,44085.512,44156.500,44375.637,0.065,0.981,0.166,-1.129,4.486,0.366,26.667,563.000,1.000
43884.879,43845.363,44129.855,43847.508,43982.961,44135.934,44206.477,44425.883,0.067,0.979,0.169,-1.007,4.608,0.519,26.667,564.000,1.000
43973.305,43933.785,44218.367,43935.574,44071.473,44223.910,44294.633,44514.305,0.068,0.976,0.168,-0.824,4.578,0.458,26.667,565.000,1.000
43973.305,43933.785,44218.367,43935.574,44071.473,44223.910,44294.633,44514.305,0.068,0.976,0.168,-0.824,4.578,0.458,26.667,566.000,0.000
43973.305,43933.785,44218.367,43935.574,44071.473,44223.910,44294.633,44514.305,0.068,0.976,0.168,-0.824,4.578,0.458,26.667,567.000,0.000
43973.305,43933.785,44218.367,43935.574,44071.473,44223.910,44294.633,44514.305,0.068,0.976,0.168,-0.824,4.578,0.458,26.667,568.000,0.000
43973.305,43933.785,44218.367,43935.574,44071.473,44223.910,44294.633,44514.305,0.068,0.976,0.168,-0.824,4.578,0.458,26.667,569.000,0.000
43973.305,43933.785,44218.367,43935.574,44071.473,44223.910,44294.633,44514.305,0.068,0.976,0.168,-0.824,4.578,0.458,26.667,570.000,0.000
43973.305,43933.785,44218.367,43935.574,44071.473,44223.910,44294.633,44514.305,0.068,0.976,0.168,-0.824,4.578,0.458,26.667,571.000,0.000
43973.305,43933.785,44218.367,43935.574,44071.473,44223.910,44294.633,44514.305,0.068,0.976,0.168,-0.824,4.578,0.458,26.667,572.000,0.000
43973.305,43933.785,44218.367,43935.574,44071.473,44223.910,44294.633,44514.305,0.068,0.976,0.168,-0.824,4.578,0.458,26.667,573.000,0.000
43973.305,43933.785,44218.367,43935.574,44071.473,44223.910,44294.633,44514.305,0.068,0.976,0.168,-0.824,4.578,0.458,26.667,574.000,0.000
43973.305,43933.785,44218.367,43935.574,44071.473,44223.910,44294.633,44514.305,0.068,0.976,0.168,-0.824,4.578,0.458,26.667,575.000,0.000
44991.203,44951.953,45237.520,44954.188,45089.102,45241.543,45313.066,45532.832,0.070,0.989,0.168,0.305,4.181,1.251,26.667,576.000,1.000
45048.512,45009.352,45294.828,45011.676,45146.324,45299.031,45370.379,45590.320,0.068,0.993,0.164,0.244,4.059,1.343,26.667,577.000,1.000
45145.875,45106.629,45392.191,45109.488,45243.777,45396.664,45468.012,45687.953,0.068,0.996,0.163,0.092,3.998,1.434,26.667,578.000,1.000
45274.176,45234.926,45520.313,45237.430,45371.898,45524.961,45595.773,45815.625,0.071,1.000,0.165,-0.061,3.784,1.709,26.667,579.000,1.000
45345.344,45306.184,45591.391,45308.328,45443.156,45596.129,45666.762,45887.148,0.069,0.998,0.169,-0.336,3.754,1.831,26.667,580.000,1.000
45392.461,45353.121,45638.957,45355.535,45490.273,45642.891,45713.879,45934.715,0.071,0.996,0.168,-0.610,3.571,1.953,26.667,581.000,1.000
45479.723,45440.113,45725.859,45442.887,45577.355,45730.152,45800.961,46021.527,0.072,0.990,0.169,-1.038,3.418,2.106,26.667,582.000,1.000
45602.301,45562.961,45847.988,45565.105,45700.289,45852.906,45923.270,46143.660,0.073,0.987,0.171,-1.099,3.326,2.014,26.667,583.000,1.000
45685.539,45646.379,45931.855,45648.969,45783.438,45936.055,46006.688,46227.164,0.073,0.984,0.168,-1.099,3.204,2.014,26.667,584.000,1.000
45724.160,45684.910,45970.477,45687.773,45821.883,45974.680,46045.402,46266.145,0.074,0.982,0.167,-0.946,3.204,2.045,26.667,585.000,1.000
45805.789,45766.449,46051.570,45768.773,45903.422,46056.309,46126.492,46347.508,0.076,0.981,0.165,-0.854,3.143,1.953,26.667,586.000,1.000
45921.930,45882.680,46168.066,45885.273,46019.473,46172.359,46242.723,46463.559,0.078,0.983,0.166,-0.488,3.052,1.984,26.667,587.000,1.000
46022.961,45983.621,46268.918,45985.945,46120.504,46273.566,46343.395,46564.320,0.079,0.985,0.169,-0.183,2.960,1.953,26.667,588.000,1.000
46061.047,46021.617,46306.469,46023.586,46158.410,46311.566,46381.215,46602.316,0.077,0.987,0.169,-0.061,2.747,1.984,26.667,589.000,1.000
46137.223,46097.703,46383.180,46100.117,46234.676,46387.648,46458.012,46679.207,0.079,0.990,0.172,0.122,2.747,1.953,26.667,590.000,1.000
46137.223,46097.703,46383.180,46100.117,46234.676,46387.648,46458.012,46679.207,0.079,0.990,0.172,0.122,2.747,1.953,26.667,591.000,0.000
46137.223,46097.703,46383.180,46100.117,46234.676,46387.648,46458.012,46679.207,0.079,0.990,0.172,0.122,2.747,1.953,26.667,592.000,0.000
46137.223,46097.703,46383.180,46100.117,46234.676,46387.648,46458.012,46679.207,0.079,0.990,0.172,0.122,2.747,1.953,26.667,593.000,0.000
46137.223,46097.703,46383.180,46100.117,46234.676,46387.648,46458.012,46679.207,0.079,0.990,0.172,0.122,2.747,1.953,26.667,594.000,0.000
46137.223,46097.703,46383.180,46100.117,46234.676,46387.648,46458.012,46679.207,0.079,0.990,0.172,0.122,2.747,1.953,26.667,595.000,0.000
46137.223,46097.703,46383.180,46100.117,46234.676,46387.648,46458.012,46679.207,0.079,0.990,0.172,0.122,2.747,1.953,26.667,596.000,0.000
46137.223,46097.703,46383.180,46100.117,46234.676,46387.648,46458.012,46679.207,0.079,0.990,0.172,0.122,2.747,1.953,26.667,597.000,0.000
46137.223,46097.703,46383.180,46100.117,46234.676,46387.648,46458.012,46679.207,0.079,0.990,0.172,0.122,2.747,1.953,26.667,598.000,0.000
46137.223,46097.703,46383.180,46100.117,46234.676,46387.648,46458.012,46679.207,0.079,0.990,0.172,0.122,2.747,1.953,26.667,599.000,0.000
46137.223,46097.703,46383.180,46100.117,46234.676,46387.648,46458.012,46679.207,0.079,0.990,0.172,0.122,2.747,1.953,26.667,600.000,0.000
46137.223,46097.703,46383.180,46100.117,46234.676,46387.648,46458.012,46679.207,0.079,0.990,0.172,0.122,2.747,1.953,26.667,601.000,0.000
46137.223,46097.703,46383.180,46100.117,46234.676,46387.648,46458.012,46679.207,0.079,0.990,0.172,0.122,2.747,1.953,26.667,602.000,0.000
46137.223,46097.703,46383.180,46100.117,46234.676,46387.648,46458.012,46679.207,0.079,0.990,0.172,0.122,2.747,1.953,26.667,603.000,0.000
46137.223,46097.703,46383.180,46100.117,46234.676,46387.648,46458.012,46679.207,0.079,0.990,0.172,0.122,2.747,1.953,26.667,604.000,0.000
46137.223,46097.703,46383.180,46100.117,46234.676,46387.648,46458.012,46679.207,0.079,0.990,0.172,0.122,2.747,1.953,26.667,605.000,0.000
46137.223,46097.703,46383.180,46100.117,46234.676,46387.648,46458.012,46679.207,0.079,0.990,0.172,0.122,2.747,1.953,26.667,606.000,0.000
46137.223,46097.703,46383.180,46100.117,46234.676,46387.648,46458.012,46679.207,0.079,0.990,0.172,0.122,2.747,1.953,26.667,607.000,0.000
46137.223,46097.703,46383.180,46100.117,46234.676,46387.648,46458.012,46679.207,0.079,0.990,0.172,0.122,2.747,1.953,26.667,608.000,0.000
46137.223,46097.703,46383.180,46100.117,46234.676,46387.648,46458.012,46679.207,0.079,0.990,0.172,0.122,2.747,1.953,26.667,609.000,0.000
46137.223,46097.703,46383.180,46100.117,46234.676,46387.648,46458.012,46679.207,0.079,0.990,0.172,0.122,2.747,1.953,26.667,610.000,0.000
46137.223,46097.703,46383.180,46100.117,46234.676,46387.648,46458.012,46679.207,0.079,0.990,0.172,0.122,2.747,1.953,26.667,611.000,0.000
46137.223,46097.703,46383.180,46100.117,46234.676,46387.648,46458.012,46679.207,0.079,0.990,0.172,0.122,2.747,1.953,26.667,612.000,0.000
46137.223,46097.703,46383.180,46100.117,46234.676,46387.648,46458.012,46679.207,0.079,0.990,0.172,0.122,2.747,1.953,26.667,613.000,0.000
46137.223,46097.703,46383.180,46100.117,46234.676,46387.648,46458.012,46679.207,0.079,0.990,0.172,0.122,2.747,1.953,26.667,614.000,0.000
46137.223,46097.703,46383.180,46100.117,46234.676,46387.648,46458.012,46679.207,0.079,0.990,0.172,0.122,2.747,1.953,26.667,615.000,0.000
48309.813,48270.473,48557.020,48274.047,48407.266,48560.152,48630.066,48852.063,0.080,0.995,0.177,-0.641,-0.946,0.549,26.667,616.000,1.000
48428.543,48388.758,48675.039,48392.156,48525.191,48678.348,48747.727,48970.352,0.081,0.993,0.178,-0.702,-1.373,0.397,26.667,617.000,1.000
48471.371,48431.672,48717.508,48434.801,48568.020,48721.262,48790.285,49012.816,0.083,0.992,0.182,-0.671,-1.648,0.366,26.667,618.000,1.000
48537.621,48497.832,48783.848,48500.965,48633.910,48787.422,48856.445,49078.980,0.087,0.992,0.179,-0.671,-1.740,0.244,26.667,619.000,1.000
48637.578,48597.879,48883.715,48601.098,48733.777,48887.559,48956.848,49179.383,0.087,0.993,0.176,-0.519,-1.892,0.061,26.667,620.000,1.000
48760.152,48720.637,49006.113,48723.496,48856.980,49010.227,49079.156,49301.781,0.086,0.996,0.175,-0.275,-2.045,0.000,26.667,621.000,1.000
48816.301,48776.695,49062.887,48780.090,48913.219,49066.285,49135.664,49358.285,0.088,0.995,0.176,-0.214,-2.197,-0.092,26.667,622.000,1.000
48875.938,48836.238,49122.254,48839.457,48972.496,49125.738,49195.207,49417.742,0.089,0.994,0.175,-0.305,-2.350,-0.183,26.667,623.000,1.000
48972.316,48932.531,49217.918,48935.391,49068.699,49222.031,49290.965,49513.320,0.090,0.991,0.171,-0.427,-2.563,-0.244,26.667,624.000,1.000
49097.664,49057.969,49343.980,49061.098,49194.047,49347.199,49416.133,49639.023,0.092,0.986,0.169,-0.519,-2.625,-0.366,26.667,625.000,1.000
49166.598,49126.902,49412.824,49129.852,49263.066,49416.313,49485.422,49708.137,0.091,0.984,0.172,-0.458,-2.594,-0.397,26.667,626.000,1.000
49217.559,49177.684,49463.875,49181.172,49313.852,49467.273,49536.922,49759.367,0.090,0.980,0.175,-0.397,-2.594,-0.549,26.667,627.000,1.000
49217.559,49177.684,49463.875,49181.172,49313.852,49467.273,49536.922,49759.367,0.090,0.980,0.175,-0.397,-2.594,-0.549,26.667,628.000,0.000
49217.559,49177.684,49463.875,49181.172,49313.852,49467.273,49536.922,49759.367,0.090,0.980,0.175,-0.397,-2.594,-0.549,26.667,629.000,0.000
49217.559,49177.684,49463.875,49181.172,49313.852,49467.273,49536.922,49759.367,0.090,0.980,0.175,-0.397,-2.594,-0.549,26.667,630.000,0.000
49217.559,49177.684,49463.875,49181.172,49313.852,49467.273,49536.922,49759.367,0.090,0.980,0.175,-0.397,-2.594,-0.549,26.667,631.000,0.000
49217.559,49177.684,49463.875,49181.172,49313.852,49467.273,49536.922,49759.367,0.090,0.980,0.175,-0.397,-2.594,-0.549,26.667,632.000,0.000
49217.559,49177.684,49463.875,49181.172,49313.852,49467.273,49536.922,49759.367,0.090,0.980,0.175,-0.397,-2.594,-0.549,26.667,633.000,0.000
49217.559,49177.684,49463.875,49181.172,49313.852,49467.273,49536.922,49759.367,0.090,0.980,0.175,-0.397,-2.594,-0.549,26.667,634.000,0.000
49217.559,49177.684,49463.875,49181.172,49313.852,49467.273,49536.922,49759.367,0.090,0.980,0.175,-0.397,-2.594,-0.549,26.667,635.000,0.000
49217.559,49177.684,49463.875,49181.172,49313.852,49467.273,49536.922,49759.367,0.090,0.980,0.175,-0.397,-2.594,-0.549,26.667,636.000,0.000
49217.559,49177.684,49463.875,49181.172,49313.852,49467.273,49536.922,49759.367,0.090,0.980,0.175,-0.397,-2.594,-0.549,26.667,637.000,0.000
49217.559,49177.684,49463.875,49181.172,49313.852,49467.273,49536.922,49759.367,0.090,0.980,0.175,-0.397,-2.594,-0.549,26.667,638.000,0.000
49217.559,49177.684,49463.875,49181.172,49313.852,49467.273,49536.922,49759.367,0.090,0.980,0.175,-0.397,-2.594,-0.549,26.667,639.000,0.000
49217.559,49177.684,49463.875,49181.172,49313.852,49467.273,49536.922,49759.367,0.090,0.980,0.175,-0.397,-2.594,-0.549,26.667,640.000,0.000
49217.559,49177.684,49463.875,49181.172,49313.852,49467.273,49536.922,49759.367,0.090,0.980,0.175,-0.397,-2.594,-0.549,26.667,641.000,0.000
49217.559,49177.684,49463.875,49181.172,49313.852,49467.273,49536.922,49759.367,0.090,0.980,0.175,-0.397,-2.594,-0.549,26.667,642.000,0.000
49217.559,49177.684,49463.875,49181.172,49313.852,49467.273,49536.922,49759.367,0.090,0.980,0.175,-0.397,-2.594,-0.549,26.667,643.000,0.000
49217.559,49177.684,49463.875,49181.172,49313.852,49467.273,49536.922,49759.367,0.090,0.980,0.175,-0.397,-2.594,-0.549,26.667,644.000,0.000
49217.559,49177.684,49463.875,49181.172,49313.852,49467.273,49536.922,49759.367,0.090,0.980,0.175,-0.397,-2.594,-0.549,26.667,645.000,0.000
49217.559,49177.684,49463.875,49181.172,49313.852,49467.273,49536.922,49759.367,0.090,0.980,0.175,-0.397,-2.594,-0.549,26.667,646.000,0.000
49217.559,49177.684,49463.875,49181.172,49313.852,49467.273,49536.922,49759.367,0.090,0.980,0.175,-0.397,-2.594,-0.549,26.667,647.000,0.000
49217.559,49177.684,49463.875,49181.172,49313.852,49467.273,49536.922,49759.367,0.090,0.980,0.175,-0.397,-2.594,-0.549,26.667,648.000,0.000
49217.559,49177.684,49463.875,49181.172,49313.852,49467.273,49536.922,49759.367,0.090,0.980,0.175,-0.397,-2.594,-0.549,26.667,649.000,0.000
49217.559,49177.684,49463.875,49181.172,49313.852,49467.273,49536.922,49759.367,0.090,0.980,0.175,-0.397,-2.594,-0.549,26.667,650.000,0.000
49217.559,49177.684,49463.875,49181.172,49313.852,49467.273,49536.922,49759.367,0.090,0.980,0.175,-0.397,-2.594,-0.549,26.667,651.000,0.000
49217.559,49177.684,49463.875,49181.172,49313.852,49467.273,49536.922,49759.367,0.090,0.980,0.175,-0.397,-2.594,-0.549,26.667,652.000,0.000
49217.559,49177.684,49463.875,49181.172,49313.852,49467.273,49536.922,49759.367,0.090,0.980,0.175,-0.397,-2.594,-0.549,26.667,653.000,0.000
49217.559,49177.684,49463.875,49181.172,49313.852,49467.273,49536.922,49759.367,0.090,0.980,0.175,-0.397,-2.594,-0.549,26.667,654.000,0.000
49217.559,49177.684,49463.875,49181.172,49313.852,49467.273,49536.922,49759.367,0.090,0.980,0.175,-0.397,-2.594,-0.549,26.667,655.000,0.000
49217.559,49177.684,49463.875,49181.172,49313.852,49467.273,49536.922,49759.367,0.090,0.980,0.175,-0.397,-2.594,-0.549,26.667,656.000,0.000
49217.559,49177.684,49463.875,49181.172,49313.852,49467.273,49536.922,49759.367,0.090,0.980,0.175,-0.397,-2.594,-0.549,26.667,657.000,0.000
49217.559,49177.684,49463.875,49181.172,49313.852,49467.273,49536.922,49759.367,0.090,0.980,0.175,-0.397,-2.594,-0.549,26.667,658.000,0.000
49217.559,49177.684,49463.875,49181.172,49313.852,49467.273,49536.922,49759.367,0.090,0.980,0.175,-0.397,-2.594,-0.549,26.667,659.000,0.000
49217.559,49177.684,49463.875,49181.172,49313.852,49467.273,49536.922,49759.367,0.090,0.980,0.175,-0.397,-2.594,-0.549,26.667,660.000,0.000
49217.559,49177.684,49463.875,49181.172,49313.852,49467.273,49536.922,49759.367,0.090,0.980,0.175,-0.397,-2.594,-0.549,26.667,661.000,0.000
52203.129,52163.699,52448.727,52167.902,52299.328,52453.020,52520.699,52744.754,0.082,0.994,0.183,-2.747,-2.350,-1.831,26.667,662.000,1.000
52319.715,52280.016,52565.316,52284.039,52415.648,52569.250,52637.109,52860.984,0.086,0.993,0.184,-2.686,-2.106,-1.770,26.667,663.000,1.000
52367.547,52328.207,52613.238,52332.141,52463.211,52617.262,52685.211,52908.996,0.087,0.993,0.186,-2.686,-1.801,-1.617,26.667,664.000,1.000
52441.039,52401.789,52686.730,52405.902,52536.973,52690.754,52758.523,52982.488,0.088,0.991,0.186,-2.533,-1.465,-1.526,26.667,665.000,1.000
52547.074,52507.648,52792.410,52511.938,52643.457,52796.789,52864.203,53087.988,0.088,0.991,0.185,-2.411,-1.099,-1.282,26.667,666.000,1.000
52673.586,52634.246,52919.367,52638.809,52769.969,52923.480,52990.980,53214.945,0.087,0.988,0.184,-2.258,-0.824,-1.129,26.667,667.000,1.000
52729.645,52690.664,52975.961,52695.313,52825.938,52979.715,53047.219,53271.453,0.087,0.987,0.183,-1.892,-0.580,-1.068,26.667,668.000,1.000
52793.305,52754.055,53039.621,52758.703,52889.684,53043.285,53110.789,53335.109,0.083,0.986,0.183,-1.678,-0.244,-1.007,26.667,669.000,1.000
52893.527,52854.367,53139.398,52858.840,52990.176,53143.152,53211.102,53435.066,0.083,0.988,0.186,-1.465,0.092,-1.007,26.667,670.000,1.000
53020.934,52981.594,53266.535,52986.422,53117.402,53270.379,53338.148,53562.563,0.081,0.990,0.186,-1.282,0.336,-1.068,26.667,671.000,1.000
53091.207,53051.957,53336.898,53056.605,53187.855,53340.563,53408.246,53632.566,0.082,0.990,0.189,-1.221,0.671,-1.099,26.667,672.000,1.000
53148.070,53108.730,53393.852,53113.023,53244.273,53397.336,53464.930,53689.430,0.083,0.993,0.189,-1.068,0.824,-1.129,26.667,673.000,1.000
53244.004,53204.844,53490.141,53209.492,53340.473,53493.629,53561.578,53785.719,0.083,0.996,0.187,-0.885,1.221,-1.129,26.667,674.000,1.000
53370.781,53331.176,53616.563,53336.094,53467.344,53620.141,53688.176,53912.230,0.081,1.000,0.188,-0.824,1.434,-1.312,26.667,675.000,1.000
53456.703,53417.184,53702.570,53422.102,53553.352,53706.418,53774.188,53998.418,0.079,1.000,0.186,-0.824,1.709,-1.160,26.667,676.000,1.000
53504.984,53465.555,53750.941,53470.648,53601.809,53754.605,53822.289,54046.879,0.078,0.997,0.187,-0.763,1.831,-1.190,26.667,677.000,1.000
53504.984,53465.555,53750.941,53470.648,53601.809,53754.605,53822.289,54046.879,0.078,0.997,0.187,-0.763,1.831,-1.190,26.667,678.000,0.000
53504.984,53465.555,53750.941,53470.648,53601.809,53754.605,53822.289,54046.879,0.078,0.997,0.187,-0.763,1.831,-1.190,26.667,679.000,0.000
53504.984,53465.555,53750.941,53470.648,53601.809,53754.605,53822.289,54046.879,0.078,0.997,0.187,-0.763,1.831,-1.190,26.667,680.000,0.000
53504.984,53465.555,53750.941,53470.648,53601.809,53754.605,53822.289,54046.879,0.078,0.997,0.187,-0.763,1.831,-1.190,26.667,681.000,0.000
53504.984,53465.555,53750.941,53470.648,53601.809,53754.605,53822.289,54046.879,0.078,0.997,0.187,-0.763,1.831,-1.190,26.667,682.000,0.000
53504.984,53465.555,53750.941,53470.648,53601.809,53754.605,53822.289,54046.879,0.078,0.997,0.187,-0.763,1.831,-1.190,26.667,683.000,0.000
53504.984,53465.555,53750.941,53470.648,53601.809,53754.605,53822.289,54046.879,0.078,0.997,0.187,-0.763,1.831,-1.190,26.667,684.000,0.000
53504.984,53465.555,53750.941,53470.648,53601.809,53754.605,53822.289,54046.879,0.078,0.997,0.187,-0.763,1.831,-1.190,26.667,685.000,0.000
53504.984,53465.555,53750.941,53470.648,53601.809,53754.605,53822.289,54046.879,0.078,0.997,0.187,-0.763,1.831,-1.190,26.667,686.000,0.000
53504.984,53465.555,53750.941,53470.648,53601.809,53754.605,53822.289,54046.879,0.078,0.997,0.187,-0.763,1.831,-1.190,26.667,687.000,0.000
53504.984,53465.555,53750.941,53470.648,53601.809,53754.605,53822.289,54046.879,0.078,0.997,0.187,-0.763,1.831,-1.190,26.667,688.000,0.000
53504.984,53465.555,53750.941,53470.648,53601.809,53754.605,53822.289,54046.879,0.078,0.997,0.187,-0.763,1.831,-1.190,26.667,689.000,0.000
53504.984,53465.555,53750.941,53470.648,53601.809,53754.605,53822.289,54046.879,0.078,0.997,0.187,-0.763,1.831,-1.190,26.667,690.000,0.000
53504.984,53465.555,53750.941,53470.648,53601.809,53754.605,53822.289,54046.879,0.078,0.997,0.187,-0.763,1.831,-1.190,26.667,691.000,0.000
53504.984,53465.555,53750.941,53470.648,53601.809,53754.605,53822.289,54046.879,0.078,0.997,0.187,-0.763,1.831,-1.190,26.667,692.000,0.000
53504.984,53465.555,53750.941,53470.648,53601.809,53754.605,53822.289,54046.879,0.078,0.997,0.187,-0.763,1.831,-1.190,26.667,693.000,0.000
53504.984,53465.555,53750.941,53470.648,53601.809,53754.605,53822.289,54046.879,0.078,0.997,0.187,-0.763,1.831,-1.190,26.667,694.000,0.000
53504.984,53465.555,53750.941,53470.648,53601.809,53754.605,53822.289,54046.879,0.078,0.997,0.187,-0.763,1.831,-1.190,26.667,695.000,0.000
53504.984,53465.555,53750.941,53470.648,53601.809,53754.605,53822.289,54046.879,0.078,0.997,0.187,-0.763,1.831,-1.190,26.667,696.000,0.000
53504.984,53465.555,53750.941,53470.648,53601.809,53754.605,53822.289,54046.879,0.078,0.997,0.187,-0.763,1.831,-1.190,26.667,697.000,0.000
53504.984,53465.555,53750.941,53470.648,53601.809,53754.605,53822.289,54046.879,0.078,0.997,0.187,-0.763,1.831,-1.190,26.667,698.000,0.000
53504.984,53465.555,53750.941,53470.648,53601.809,53754.605,53822.289,54046.879,0.078,0.997,0.187,-0.763,1.831,-1.190,26.667,699.000,0.000
55611.590,55572.160,55857.371,55577.703,55707.969,55861.395,55927.465,56152.414,0.065,0.993,0.175,3.784,2.350,-0.671,20.000,700.000,1.000
55705.289,55666.039,55950.980,55671.852,55801.848,55955.359,56021.164,56246.289,0.064,0.996,0.172,3.723,2.075,-0.580,20.000,701.000,1.000
55754.641,55715.570,56001.047,55721.559,55851.289,56004.891,56071.051,56296.180,0.065,0.996,0.167,3.662,1.892,-0.488,20.000,702.000,1.000
55842.172,55802.563,56088.398,55809.000,55938.820,56092.063,56158.402,56383.531,0.066,0.996,0.165,3.571,1.740,-0.275,20.000,703.000,1.000
55961.707,55922.547,56207.578,55928.539,56058.266,56211.602,56277.762,56503.246,0.067,0.996,0.164,3.510,1.465,-0.092,20.000,704.000,1.000
56069.441,56030.281,56315.758,56036.273,56166.004,56319.336,56385.496,56611.250,0.067,0.997,0.162,3.357,1.373,0.214,20.000,705.000,1.000
56116.383,56077.043,56362.520,56083.301,56212.762,56366.184,56432.168,56657.742,0.065,0.996,0.160,3.235,1.282,0.305,20.000,706.000,1.000
56197.117,56157.777,56443.434,56164.484,56293.406,56446.742,56513.082,56738.652,0.066,0.996,0.160,3.143,1.160,0.458,20.000,707.000,1.000
56308.430,56269.180,56554.656,56275.527,56404.719,56557.785,56624.305,56850.145,0.068,0.997,0.160,2.991,1.038,0.580,20.000,708.000,1.000
56427.785,56388.445,56673.566,56394.617,56523.719,56676.875,56743.305,56969.055,0.069,0.998,0.157,2.594,1.007,0.885,20.000,709.000,1.000
56477.676,56438.246,56723.367,56444.414,56573.520,56726.852,56793.371,57018.855,0.071,1.000,0.155,2.197,0.793,1.221,20.000,710.000,1.000
56551.527,56512.277,56797.395,56518.535,56647.727,56801.238,56867.043,57092.883,0.073,0.997,0.158,1.892,0.793,1.495,20.000,711.000,1.000
56658.457,56619.117,56904.504,56626.000,56754.926,56908.617,56974.512,57200.172,0.073,0.996,0.155,1.587,0.732,1.709,20.000,712.000,1.000
56658.457,56619.117,56904.504,56626.000,56754.926,56908.617,56974.512,57200.172,0.073,0.996,0.155,1.587,0.732,1.709,20.000,713.000,0.000
56658.457,56619.117,56904.504,56626.000,56754.926,56908.617,56974.512,57200.172,0.073,0.996,0.155,1.587,0.732,1.709,20.000,714.000,0.000
56658.457,56619.117,56904.504,56626.000,56754.926,56908.617,56974.512,57200.172,0.073,0.996,0.155,1.587,0.732,1.709,20.000,715.000,0.000
56658.457,56619.117,56904.504,56626.000,56754.926,56908.617,56974.512,57200.172,0.073,0.996,0.155,1.587,0.732,1.709,20.000,716.000,0.000
56658.457,56619.117,56904.504,56626.000,56754.926,56908.617,56974.512,57200.172,0.073,0.996,0.155,1.587,0.732,1.709,20.000,717.000,0.000
56658.457,56619.117,56904.504,56626.000,56754.926,56908.617,56974.512,57200.172,0.073,0.996,0.155,1.587,0.732,1.709,20.000,718.000,0.000
56658.457,56619.117,56904.504,56626.000,56754.926,56908.617,56974.512,57200.172,0.073,0.996,0.155,1.587,0.732,1.709,20.000,719.000,0.000
56658.457,56619.117,56904.504,56626.000,56754.926,56908.617,56974.512,57200.172,0.073,0.996,0.155,1.587,0.732,1.709,20.000,720.000,0.000
56658.457,56619.117,56904.504,56626.000,56754.926,56908.617,56974.512,57200.172,0.073,0.996,0.155,1.587,0.732,1.709,20.000,721.000,0.000
56658.457,56619.117,56904.504,56626.000,56754.926,56908.617,56974.512,57200.172,0.073,0.996,0.155,1.587,0.732,1.709,20.000,722.000,0.000
56658.457,56619.117,56904.504,56626.000,56754.926,56908.617,56974.512,57200.172,0.073,0.996,0.155,1.587,0.732,1.709,20.000,723.000,0.000
56658.457,56619.117,56904.504,56626.000,56754.926,56908.617,56974.512,57200.172,0.073,0.996,0.155,1.587,0.732,1.709,20.000,724.000,0.000
56658.457,56619.117,56904.504,56626.000,56754.926,56908.617,56974.512,57200.172,0.073,0.996,0.155,1.587,0.732,1.709,20.000,725.000,0.000
56658.457,56619.117,56904.504,56626.000,56754.926,56908.617,56974.512,57200.172,0.073,0.996,0.155,1.587,0.732,1.709,20.000,726.000,0.000
56658.457,56619.117,56904.504,56626.000,56754.926,56908.617,56974.512,57200.172,0.073,0.996,0.155,1.587,0.732,1.709,20.000,727.000,0.000
56658.457,56619.117,56904.504,56626.000,56754.926,56908.617,56974.512,57200.172,0.073,0.996,0.155,1.587,0.732,1.709,20.000,728.000,0.000
56658.457,56619.117,56904.504,56626.000,56754.926,56908.617,56974.512,57200.172,0.073,0.996,0.155,1.587,0.732,1.709,20.000,729.000,0.000
56658.457,56619.117,56904.504,56626.000,56754.926,56908.617,56974.512,57200.172,0.073,0.996,0.155,1.587,0.732,1.709,20.000,730.000,0.000
56658.457,56619.117,56904.504,56626.000,56754.926,56908.617,56974.512,57200.172,0.073,0.996,0.155,1.587,0.732,1.709,20.000,731.000,0.000
56658.457,56619.117,56904.504,56626.000,56754.926,56908.617,56974.512,57200.172,0.073,0.996,0.155,1.587,0.732,1.709,20.000,732.000,0.000
56658.457,56619.117,56904.504,56626.000,56754.926,56908.617,56974.512,57200.172,0.073,0.996,0.155,1.587,0.732,1.709,20.000,733.000,0.000
56658.457,56619.117,56904.504,56626.000,56754.926,56908.617,56974.512,57200.172,0.073,0.996,0.155,1.587,0.732,1.709,20.000,734.000,0.000
56658.457,56619.117,56904.504,56626.000,56754.926,56908.617,56974.512,57200.172,0.073,0.996,0.155,1.587,0.732,1.709,20.000,735.000,0.000
56658.457,56619.117,56904.504,56626.000,56754.926,56908.617,56974.512,57200.172,0.073,0.996,0.155,1.587,0.732,1.709,20.000,736.000,0.000
56658.457,56619.117,56904.504,56626.000,56754.926,56908.617,56974.512,57200.172,0.073,0.996,0.155,1.587,0.732,1.709,20.000,737.000,0.000
56658.457,56619.117,56904.504,56626.000,56754.926,56908.617,56974.512,57200.172,0.073,0.996,0.155,1.587,0.732,1.709,20.000,738.000,0.000
58937.172,58898.637,59183.758,58905.254,59033.910,59187.781,59252.332,59478.891,0.079,0.990,0.158,-2.441,-1.892,1.190,20.000,739.000,1.000
58986.434,58947.902,59232.930,58954.875,59083.531,59236.953,59301.773,59528.152,0.078,0.988,0.161,-2.625,-2.106,1.068,20.000,740.000,1.000
59070.836,59032.391,59317.152,59039.098,59168.109,59321.441,59386.176,59612.730,0.077,0.985,0.163,-2.686,-2.197,1.007,20.000,741.000,1.000
59186.262,59147.547,59432.574,59154.699,59283.266,59436.688,59501.598,59728.246,0.077,0.982,0.164,-2.686,-2.258,0.885,20.000,742.000,1.000
59245.625,59206.465,59492.121,59214.066,59342.633,59496.055,59560.875,59787.609,0.078,0.982,0.166,-2.594,-2.167,0.793,20.000,743.000,1.000
59284.250,59245.359,59530.836,59252.867,59381.258,59534.590,59599.500,59826.055,0.080,0.983,0.166,-2.594,-2.136,0.702,20.000,744.000,1.000
59363.820,59325.020,59610.051,59332.352,59460.918,59614.340,59678.891,59905.898,0.078,0.986,0.165,-2.502,-2.258,0.732,20.000,745.000,1.000
59477.996,59439.191,59724.402,59446.523,59575.270,59728.691,59792.707,60020.070,0.080,0.989,0.165,-2.594,-2.258,0.702,20.000,746.000,1.000
59551.039,59512.328,59797.535,59519.570,59648.227,59801.559,59865.934,60092.668,0.078,0.991,0.164,-2.777,-2.411,0.671,20.000,747.000,1.000
59583.852,59544.871,59830.527,59552.738,59680.949,59834.461,59899.102,60125.660,0.076,0.993,0.167,-2.960,-2.289,0.641,20.000,748.000,1.000
59657.613,59618.543,59904.289,59626.680,59754.441,59908.313,59972.684,60199.508,0.077,0.990,0.167,-3.082,-2.319,0.702,20.000,749.000,1.000
59761.324,59722.793,60008.000,59730.301,59858.422,60012.023,60076.219,60302.863,0.081,0.988,0.169,-3.235,-2.350,0.763,20.000,750.000,1.000
59850.734,59812.289,60097.496,59819.441,59947.473,60101.520,60165.625,60392.539,0.082,0.985,0.172,-3.387,-2.380,0.732,20.000,751.000,1.000
59878.895,59839.914,60125.570,59847.781,59975.723,60129.594,60193.965,60420.969,0.084,0.985,0.168,-3.479,-2.380,0.885,20.000,752.000,1.000
59940.496,59901.875,60187.262,59909.652,60037.414,60191.105,60255.656,60482.840,0.084,0.985,0.168,-3.510,-2.319,0.916,20.000,753.000,1.000
60035.805,59997.270,60282.566,60004.961,60132.813,60286.680,60350.430,60577.879,0.084,0.986,0.169,-3.601,-2.197,0.824,20.000,754.000,1.000
60035.805,59997.270,60282.566,60004.961,60132.813,60286.680,60350.430,60577.879,0.084,0.986,0.169,-3.601,-2.197,0.824,20.000,755.000,0.000
60035.805,59997.270,60282.566,60004.961,60132.813,60286.680,60350.430,60577.879,0.084,0.986,0.169,-3.601,-2.197,0.824,20.000,756.000,0.000
60035.805,59997.270,60282.566,60004.961,60132.813,60286.680,60350.430,60577.879,0.084,0.986,0.169,-3.601,-2.197,0.824,20.000,757.000,0.000
60035.805,59997.270,60282.566,60004.961,60132.813,60286.680,60350.430,60577.879,0.084,0.986,0.169,-3.601,-2.197,0.824,20.000,758.000,0.000
60035.805,59997.270,60282.566,60004.961,60132.813,60286.680,60350.430,60577.879,0.084,0.986,0.169,-3.601,-2.197,0.824,20.000,759.000,0.000
60035.805,59997.270,60282.566,60004.961,60132.813,60286.680,60350.430,60577.879,0.084,0.986,0.169,-3.601,-2.197,0.824,20.000,760.000,0.000
60035.805,59997.270,60282.566,60004.961,60132.813,60286.680,60350.430,60577.879,0.084,0.986,0.169,-3.601,-2.197,0.824,20.000,761.000,0.000
60035.805,59997.270,60282.566,60004.961,60132.813,60286.680,60350.430,60577.879,0.084,0.986,0.169,-3.601,-2.197,0.824,20.000,762.000,0.000
60035.805,59997.270,60282.566,60004.961,60132.813,60286.680,60350.430,60577.879,0.084,0.986,0.169,-3.601,-2.197,0.824,20.000,763.000,0.000
60035.805,59997.270,60282.566,60004.961,60132.813,60286.680,60350.430,60577.879,0.084,0.986,0.169,-3.601,-2.197,0.824,20.000,764.000,0.000
60035.805,59997.270,60282.566,60004.961,60132.813,60286.680,60350.430,60577.879,0.084,0.986,0.169,-3.601,-2.197,0.824,20.000,765.000,0.000
60035.805,59997.270,60282.566,60004.961,60132.813,60286.680,60350.430,60577.879,0.084,0.986,0.169,-3.601,-2.197,0.824,20.000,766.000,0.000
60035.805,59997.270,60282.566,60004.961,60132.813,60286.680,60350.430,60577.879,0.084,0.986,0.169,-3.601,-2.197,0.824,20.000,767.000,0.000
60035.805,59997.270,60282.566,60004.961,60132.813,60286.680,60350.430,60577.879,0.084,0.986,0.169,-3.601,-2.197,0.824,20.000,768.000,0.000
60035.805,59997.270,60282.566,60004.961,60132.813,60286.680,60350.430,60577.879,0.084,0.986,0.169,-3.601,-2.197,0.824,20.000,769.000,0.000
60035.805,59997.270,60282.566,60004.961,60132.813,60286.680,60350.430,60577.879,0.084,0.986,0.169,-3.601,-2.197,0.824,20.000,770.000,0.000
60035.805,59997.270,60282.566,60004.961,60132.813,60286.680,60350.430,60577.879,0.084,0.986,0.169,-3.601,-2.197,0.824,20.000,771.000,0.000
60035.805,59997.270,60282.566,60004.961,60132.813,60286.680,60350.430,60577.879,0.084,0.986,0.169,-3.601,-2.197,0.824,20.000,772.000,0.000
60035.805,59997.270,60282.566,60004.961,60132.813,60286.680,60350.430,60577.879,0.084,0.986,0.169,-3.601,-2.197,0.824,20.000,773.000,0.000
60035.805,59997.270,60282.566,60004.961,60132.813,60286.680,60350.430,60577.879,0.084,0.986,0.169,-3.601,-2.197,0.824,20.000,774.000,0.000
60035.805,59997.270,60282.566,60004.961,60132.813,60286.680,60350.430,60577.879,0.084,0.986,0.169,-3.601,-2.197,0.824,20.000,775.000,0.000
60035.805,59997.270,60282.566,60004.961,60132.813,60286.680,60350.430,60577.879,0.084,0.986,0.169,-3.601,-2.197,0.824,20.000,776.000,0.000
60035.805,59997.270,60282.566,60004.961,60132.813,60286.680,60350.430,60577.879,0.084,0.986,0.169,-3.601,-2.197,0.824,20.000,777.000,0.000
60035.805,59997.270,60282.566,60004.961,60132.813,60286.680,60350.430,60577.879,0.084,0.986,0.169,-3.601,-2.197,0.824,20.000,778.000,0.000
61727.832,61689.836,61975.488,61698.328,61825.734,61979.512,62043.172,62270.980,0.076,1.003,0.187,-9.094,-1.038,1.251,20.000,779.000,1.000
61824.930,61787.199,62072.586,61795.602,61922.828,62076.699,62140.266,62368.254,0.075,1.002,0.191,-9.308,-1.007,1.251,20.000,780.000,1.000
61852.109,61814.289,62099.676,61822.781,61950.008,62103.789,62167.180,62394.898,0.075,1.003,0.191,-9.460,-0.824,1.312,20.000,781.000,1.000
61900.836,61862.746,62148.223,61871.332,61998.469,62151.980,62215.547,62443.090,0.077,1.004,0.188,-9.705,-0.641,1.495,20.000,782.000,1.000
61983.090,61945.090,62230.211,61953.496,62080.633,62234.680,62297.980,62525.969,0.077,1.001,0.187,-9.796,-0.488,1.617,20.000,783.000,1.000
62090.469,62052.289,62337.945,62061.051,62188.012,62342.238,62405.090,62633.168,0.077,1.001,0.188,-9.796,-0.336,1.770,20.000,784.000,1.000
62128.555,62090.469,62376.211,62099.316,62226.098,62380.055,62443.355,62671.434,0.078,1.002,0.191,-9.796,-0.031,1.801,20.000,785.000,1.000
62172.273,62134.098,62419.574,62142.859,62269.816,62423.688,62486.809,62714.887,0.077,1.004,0.189,-9.979,0.153,1.984,20.000,786.000,1.000
62248.719,62210.629,62496.016,62218.945,62346.527,62500.309,62563.250,62791.688,0.073,1.002,0.188,-10.010,0.366,2.075,20.000,787.000,1.000
62354.574,62316.758,62601.605,62324.801,62452.477,62606.434,62669.199,62897.277,0.074,1.000,0.190,-10.132,0.580,2.106,20.000,788.000,1.000
62404.375,62366.465,62651.586,62374.871,62501.648,62656.055,62719.086,62947.164,0.073,0.997,0.190,-10.071,0.702,2.197,20.000,789.000,1.000
62436.563,62398.563,62684.039,62407.324,62533.656,62688.152,62751.273,62979.531,0.071,0.995,0.188,-10.010,0.824,2.350,20.000,790.000,1.000
62436.563,62398.563,62684.039,62407.324,62533.656,62688.152,62751.273,62979.531,0.071,0.995,0.188,-10.010,0.824,2.350,20.000,791.000,0.000
62436.563,62398.563,62684.039,62407.324,62533.656,62688.152,62751.273,62979.531,0.071,0.995,0.188,-10.010,0.824,2.350,20.000,792.000,0.000
62436.563,62398.563,62684.039,62407.324,62533.656,62688.152,62751.273,62979.531,0.071,0.995,0.188,-10.010,0.824,2.350,20.000,793.000,0.000
62436.563,62398.563,62684.039,62407.324,62533.656,62688.152,62751.273,62979.531,0.071,0.995,0.188,-10.010,0.824,2.350,20.000,794.000,0.000
62436.563,62398.563,62684.039,62407.324,62533.656,62688.152,62751.273,62979.531,0.071,0.995,0.188,-10.010,0.824,2.350,20.000,795.000,0.000
62436.563,62398.563,62684.039,62407.324,62533.656,62688.152,62751.273,62979.531,0.071,0.995,0.188,-10.010,0.824,2.350,20.000,796.000,0.000
62436.563,62398.563,62684.039,62407.324,62533.656,62688.152,62751.273,62979.531,0.071,0.995,0.188,-10.010,0.824,2.350,20.000,797.000,0.000
62436.563,62398.563,62684.039,62407.324,62533.656,62688.152,62751.273,62979.531,0.071,0.995,0.188,-10.010,0.824,2.350,20.000,798.000,0.000
62436.563,62398.563,62684.039,62407.324,62533.656,62688.152,62751.273,62979.531,0.071,0.995,0.188,-10.010,0.824,2.350,20.000,799.000,0.000
62436.563,62398.563,62684.039,62407.324,62533.656,62688.152,62751.273,62979.531,0.071,0.995,0.188,-10.010,0.824,2.350,20.000,800.000,0.000
62436.563,62398.563,62684.039,62407.324,62533.656,62688.152,62751.273,62979.531,0.071,0.995,0.188,-10.010,0.824,2.350,20.000,801.000,0.000
62436.563,62398.563,62684.039,62407.324,62533.656,62688.152,62751.273,62979.531,0.071,0.995,0.188,-10.010,0.824,2.350,20.000,802.000,0.000
62436.563,62398.563,62684.039,62407.324,62533.656,62688.152,62751.273,62979.531,0.071,0.995,0.188,-10.010,0.824,2.350,20.000,803.000,0.000
62436.563,62398.563,62684.039,62407.324,62533.656,62688.152,62751.273,62979.531,0.071,0.995,0.188,-10.010,0.824,2.350,20.000,804.000,0.000
62436.563,62398.563,62684.039,62407.324,62533.656,62688.152,62751.273,62979.531,0.071,0.995,0.188,-10.010,0.824,2.350,20.000,805.000,0.000
62436.563,62398.563,62684.039,62407.324,62533.656,62688.152,62751.273,62979.531,0.071,0.995,0.188,-10.010,0.824,2.350,20.000,806.000,0.000
62436.563,62398.563,62684.039,62407.324,62533.656,62688.152,62751.273,62979.531,0.071,0.995,0.188,-10.010,0.824,2.350,20.000,807.000,0.000
62436.563,62398.563,62684.039,62407.324,62533.656,62688.152,62751.273,62979.531,0.071,0.995,0.188,-10.010,0.824,2.350,20.000,808.000,0.000
62436.563,62398.563,62684.039,62407.324,62533.656,62688.152,62751.273,62979.531,0.071,0.995,0.188,-10.010,0.824,2.350,20.000,809.000,0.000
62436.563,62398.563,62684.039,62407.324,62533.656,62688.152,62751.273,62979.531,0.071,0.995,0.188,-10.010,0.824,2.350,20.000,810.000,0.000
62436.563,62398.563,62684.039,62407.324,62533.656,62688.152,62751.273,62979.531,0.071,0.995,0.188,-10.010,0.824,2.350,20.000,811.000,0.000
62436.563,62398.563,62684.039,62407.324,62533.656,62688.152,62751.273,62979.531,0.071,0.995,0.188,-10.010,0.824,2.350,20.000,812.000,0.000
62436.563,62398.563,62684.039,62407.324,62533.656,62688.152,62751.273,62979.531,0.071,0.995,0.188,-10.010,0.824,2.350,20.000,813.000,0.000
62436.563,62398.563,62684.039,62407.324,62533.656,62688.152,62751.273,62979.531,0.071,0.995,0.188,-10.010,0.824,2.350,20.000,814.000,0.000
62436.563,62398.563,62684.039,62407.324,62533.656,62688.152,62751.273,62979.531,0.071,0.995,0.188,-10.010,0.824,2.350,20.000,815.000,0.000
62436.563,62398.563,62684.039,62407.324,62533.656,62688.152,62751.273,62979.531,0.071,0.995,0.188,-10.010,0.824,2.350,20.000,816.000,0.000
62436.563,62398.563,62684.039,62407.324,62533.656,62688.152,62751.273,62979.531,0.071,0.995,0.188,-10.010,0.824,2.350,20.000,817.000,0.000
62436.563,62398.563,62684.039,62407.324,62533.656,62688.152,62751.273,62979.531,0.071,0.995,0.188,-10.010,0.824,2.350,20.000,818.000,0.000
62436.563,62398.563,62684.039,62407.324,62533.656,62688.152,62751.273,62979.531,0.071,0.995,0.188,-10.010,0.824,2.350,20.000,819.000,0.000
62436.563,62398.563,62684.039,62407.324,62533.656,62688.152,62751.273,62979.531,0.071,0.995,0.188,-10.010,0.824,2.350,20.000,820.000,0.000
62436.563,62398.563,62684.039,62407.324,62533.656,62688.152,62751.273,62979.531,0.071,0.995,0.188,-10.010,0.824,2.350,20.000,821.000,0.000
62436.563,62398.563,62684.039,62407.324,62533.656,62688.152,62751.273,62979.531,0.071,0.995,0.188,-10.010,0.824,2.350,20.000,822.000,0.000
62436.563,62398.563,62684.039,62407.324,62533.656,62688.152,62751.273,62979.531,0.071,0.995,0.188,-10.010,0.824,2.350,20.000,823.000,0.000
64709.020,64671.289,64956.945,64680.855,64807.098,64961.594,65023.285,65252.344,0.094,0.965,0.225,-17.883,-1.678,8.148,20.000,824.000,1.000
64800.660,64763.109,65049.211,64773.035,64899.098,65053.324,65115.016,65344.434,0.095,0.966,0.226,-17.334,-1.709,8.118,20.000,825.000,1.000
64900.617,64862.887,65148.902,64872.902,64998.965,65153.012,65214.527,65443.676,0.097,0.969,0.228,-16.846,-1.740,8.118,20.000,826.000,1.000
64931.910,64894.090,65180.016,64903.926,65029.988,65183.590,65245.996,65474.879,0.097,0.966,0.233,-16.449,-1.862,7.935,20.000,827.000,1.000
64985.465,64947.734,65233.750,64957.840,65083.723,65237.504,65300.090,65529.059,0.096,0.967,0.235,-16.083,-2.045,7.782,20.000,828.000,1.000
65072.012,65034.281,65320.027,65044.293,65170.090,65324.406,65386.367,65615.250,0.098,0.967,0.243,-15.778,-2.197,7.507,20.000,829.000,1.000
65178.852,65141.301,65426.422,65150.512,65277.199,65431.516,65492.848,65721.820,0.103,0.966,0.250,-15.503,-2.472,7.324,20.000,830.000,1.000
65221.590,65183.949,65469.336,65192.980,65319.668,65473.895,65535.227,65764.469,0.103,0.965,0.250,-15.259,-2.655,7.111,20.000,831.000,1.000
65269.602,65232.316,65517.703,65241.438,65368.215,65522.531,65583.688,65812.836,0.107,0.964,0.254,-14.709,-2.716,6.989,20.000,832.000,1.000
65352.121,65314.840,65600.586,65324.406,65450.918,65604.969,65666.391,65895.539,0.111,0.963,0.257,-14.099,-2.899,6.714,20.000,833.000,1.000
65462.988,65424.723,65710.914,65435.094,65561.156,65715.117,65776.805,66005.953,0.115,0.963,0.257,-13.275,-2.991,6.500,20.000,834.000,1.000
65518.777,65481.047,65766.883,65490.973,65617.211,65771.531,65832.688,66062.195,0.118,0.965,0.255,-12.329,-2.869,6.317,20.000,835.000,1.000
65561.422,65523.965,65809.797,65533.797,65660.039,65814.359,65875.602,66105.195,0.121,0.967,0.257,-11.383,-2.869,6.195,20.000,836.000,1.000
65641.172,65603.984,65889.641,65613.727,65739.883,65894.289,65955.438,66184.859,0.124,0.966,0.259,-10.559,-2.808,6.073,20.000,837.000,1.000
65752.844,65715.203,66001.039,65725.219,65851.461,66005.688,66066.844,66296.352,0.123,0.967,0.260,-9.644,-2.777,5.981,20.000,838.000,1.000
65823.391,65785.922,66071.938,65796.031,65921.648,66076.141,66137.563,66366.984,0.123,0.970,0.262,-8.789,-2.655,5.768,20.000,839.000,1.000
65823.391,65785.922,66071.938,65796.031,65921.648,66076.141,66137.563,66366.984,0.123,0.970,0.262,-8.789,-2.655,5.768,20.000,840.000,0.000
65823.391,65785.922,66071.938,65796.031,65921.648,66076.141,66137.563,66366.984,0.123,0.970,0.262,-8.789,-2.655,5.768,20.000,841.000,0.000
65823.391,65785.922,66071.938,65796.031,65921.648,66076.141,66137.563,66366.984,0.123,0.970,0.262,-8.789,-2.655,5.768,20.000,842.000,0.000
65823.391,65785.922,66071.938,65796.031,65921.648,66076.141,66137.563,66366.984,0.123,0.970,0.262,-8.789,-2.655,5.768,20.000,843.000,0.000
65823.391,65785.922,66071.938,65796.031,65921.648,66076.141,66137.563,66366.984,0.123,0.970,0.262,-8.789,-2.655,5.768,20.000,844.000,0.000
65823.391,65785.922,66071.938,65796.031,65921.648,66076.141,66137.563,66366.984,0.123,0.970,0.262,-8.789,-2.655,5.768,20.000,845.000,0.000
65823.391,65785.922,66071.938,65796.031,65921.648,66076.141,66137.563,66366.984,0.123,0.970,0.262,-8.789,-2.655,5.768,20.000,846.000,0.000
65823.391,65785.922,66071.938,65796.031,65921.648,66076.141,66137.563,66366.984,0.123,0.970,0.262,-8.789,-2.655,5.768,20.000,847.000,0.000
65823.391,65785.922,66071.938,65796.031,65921.648,66076.141,66137.563,66366.984,0.123,0.970,0.262,-8.789,-2.655,5.768,20.000,848.000,0.000
65823.391,65785.922,66071.938,65796.031,65921.648,66076.141,66137.563,66366.984,0.123,0.970,0.262,-8.789,-2.655,5.768,20.000,849.000,0.000
65823.391,65785.922,66071.938,65796.031,65921.648,66076.141,66137.563,66366.984,0.123,0.970,0.262,-8.789,-2.655,5.768,20.000,850.000,0.000
65823.391,65785.922,66071.938,65796.031,65921.648,66076.141,66137.563,66366.984,0.123,0.970,0.262,-8.789,-2.655,5.768,20.000,851.000,0.000
65823.391,65785.922,66071.938,65796.031,65921.648,66076.141,66137.563,66366.984,0.123,0.970,0.262,-8.789,-2.655,5.768,20.000,852.000,0.000
65823.391,65785.922,66071.938,65796.031,65921.648,66076.141,66137.563,66366.984,0.123,0.970,0.262,-8.789,-2.655,5.768,20.000,853.000,0.000
65823.391,65785.922,66071.938,65796.031,65921.648,66076.141,66137.563,66366.984,0.123,0.970,0.262,-8.789,-2.655,5.768,20.000,854.000,0.000
65823.391,65785.922,66071.938,65796.031,65921.648,66076.141,66137.563,66366.984,0.123,0.970,0.262,-8.789,-2.655,5.768,20.000,855.000,0.000
65823.391,65785.922,66071.938,65796.031,65921.648,66076.141,66137.563,66366.984,0.123,0.970,0.262,-8.789,-2.655,5.768,20.000,856.000,0.000
65823.391,65785.922,66071.938,65796.031,65921.648,66076.141,66137.563,66366.984,0.123,0.970,0.262,-8.789,-2.655,5.768,20.000,857.000,0.000
65823.391,65785.922,66071.938,65796.031,65921.648,66076.141,66137.563,66366.984,0.123,0.970,0.262,-8.789,-2.655,5.768,20.000,858.000,0.000
65823.391,65785.922,66071.938,65796.031,65921.648,66076.141,66137.563,66366.984,0.123,0.970,0.262,-8.789,-2.655,5.768,20.000,859.000,0.000
65823.391,65785.922,66071.938,65796.031,65921.648,66076.141,66137.563,66366.984,0.123,0.970,0.262,-8.789,-2.655,5.768,20.000,860.000,0.000
65823.391,65785.922,66071.938,65796.031,65921.648,66076.141,66137.563,66366.984,0.123,0.970,0.262,-8.789,-2.655,5.768,20.000,861.000,0.000
65823.391,65785.922,66071.938,65796.031,65921.648,66076.141,66137.563,66366.984,0.123,0.970,0.262,-8.789,-2.655,5.768,20.000,862.000,0.000
65823.391,65785.922,66071.938,65796.031,65921.648,66076.141,66137.563,66366.984,0.123,0.970,0.262,-8.789,-2.655,5.768,20.000,863.000,0.000
65823.391,65785.922,66071.938,65796.031,65921.648,66076.141,66137.563,66366.984,0.123,0.970,0.262,-8.789,-2.655,5.768,20.000,864.000,0.000
65823.391,65785.922,66071.938,65796.031,65921.648,66076.141,66137.563,66366.984,0.123,0.970,0.262,-8.789,-2.655,5.768,20.000,865.000,0.000
65823.391,65785.922,66071.938,65796.031,65921.648,66076.141,66137.563,66366.984,0.123,0.970,0.262,-8.789,-2.655,5.768,20.000,866.000,0.000
65823.391,65785.922,66071.938,65796.031,65921.648,66076.141,66137.563,66366.984,0.123,0.970,0.262,-8.789,-2.655,5.768,20.000,867.000,0.000
68154.047,68117.031,68402.961,68127.766,68253.203,68407.789,68468.313,68698.359,0.114,0.973,0.240,-1.190,-1.404,-1.038,20.000,868.000,1.000
68194.727,68157.539,68443.188,68167.992,68293.883,68448.734,68508.727,68738.500,0.114,0.976,0.241,-1.556,-1.221,-1.068,20.000,869.000,1.000
68270.906,68234.336,68519.898,68244.438,68370.594,68525.086,68584.898,68814.852,0.115,0.982,0.244,-1.953,-1.099,-1.099,20.000,870.000,1.000
68379.352,68342.695,68628.445,68352.625,68478.867,68633.539,68693.266,68923.484,0.114,0.984,0.246,-2.472,-1.099,-1.007,20.000,871.000,1.000
68493.883,68457.047,68742.703,68466.977,68592.945,68747.625,68807.523,69038.102,0.115,0.991,0.246,-2.991,-1.038,-0.885,20.000,872.000,1.000
68536.617,68499.516,68785.797,68509.977,68635.859,68790.445,68850.172,69081.195,0.115,0.993,0.246,-3.479,-0.885,-0.916,20.000,873.000,1.000
68605.195,68568.273,68854.195,68578.461,68704.703,68859.289,68918.836,69149.414,0.114,0.996,0.247,-4.089,-0.732,-0.763,20.000,874.000,1.000
68707.570,68670.641,68956.211,68680.836,68807.078,68961.484,69021.117,69251.516,0.115,0.997,0.247,-4.730,-0.671,-0.702,20.000,875.000,1.000
68827.906,68791.164,69076.547,68801.266,68927.508,69082.000,69141.102,69372.398,0.114,0.998,0.249,-5.432,-0.641,-0.549,20.000,876.000,1.000
68880.031,68843.469,69128.852,68853.570,68979.453,69134.305,69193.492,69424.430,0.113,0.995,0.251,-6.104,-0.488,-0.336,20.000,877.000,1.000
68943.336,68906.766,69192.508,68917.141,69042.578,69197.516,69256.977,69487.641,0.111,0.993,0.254,-6.714,-0.397,-0.244,20.000,878.000,1.000
69042.484,69005.828,69292.109,69016.734,69141.906,69296.758,69356.211,69586.883,0.108,0.990,0.258,-7.233,-0.275,-0.336,20.000,879.000,1.000
69169.445,69132.609,69418.266,69142.977,69268.773,69423.445,69482.992,69713.664,0.108,0.986,0.261,-7.660,-0.244,-0.305,20.000,880.000,1.000
69169.445,69132.609,69418.266,69142.977,69268.773,69423.445,69482.992,69713.664,0.108,0.986,0.261,-7.660,-0.244,-0.305,20.000,881.000,0.000
