EEG 1,EEG 2,EEG 3,EEG 4,EEG 5,EEG 6,EEG 7,EEG 8,Accelerometer X,Accelerometer Y,Accelerometer Z,Gyroscope X,Gyroscope Y,Gyroscope Z,Battery Level,Counter,Validation Indicator
144199.516,174638.219,236787.688,-7168.652,174752.031,-61701.637,-75697.047,-63788.395,-0.048,0.991,-0.034,0.000,0.000,0.000,93.333,1.000,1.000
38444.824,-2767.861,209.928,95.487,1219.779,5169.780,705.510,-7195.116,-0.040,1.001,-0.047,0.000,0.000,0.000,93.333,2.000,1.000
488.877,-4853.190,0.000,0.000,-506.133,109.345,0.000,-1688.898,-0.034,1.005,-0.047,0.000,0.000,0.000,93.333,3.000,1.000
0.000,-4350.991,0.000,0.268,-3066.123,0.000,0.000,-1331.896,-0.035,1.007,-0.051,0.000,0.000,0.000,93.333,4.000,1.000
41.753,-3611.506,0.000,113.994,-3660.322,0.000,0.000,-982.940,-0.035,1.006,-0.049,0.519,0.427,0.061,93.333,5.000,1.000
307.918,-2981.276,0.000,323.296,-2958.924,0.000,0.000,-1210.749,-0.035,1.001,-0.055,3.876,2.106,0.366,93.333,6.000,1.000
108.004,-2516.270,0.000,-1434.267,-2407.372,-0.536,-9.209,-1258.850,-0.035,1.000,-0.055,0.916,-0.580,0.610,93.333,7.000,1.000
0.089,-2128.244,-8.047,-1754.523,-1949.430,-127.941,-439.793,-1303.286,-0.032,0.997,-0.055,0.031,-1.495,0.671,93.333,8.000,1.000
102.460,-1722.962,-465.721,-1354.873,-1531.631,-578.821,-1150.847,-1084.864,-0.030,0.996,-0.057,-0.214,-1.801,0.671,93.333,9.000,1.000
282.168,-1291.573,-1074.583,-963.807,-1136.094,-579.894,-982.672,-793.219,-0.029,0.993,-0.056,-0.275,-1.678,0.702,93.333,10.000,1.000
-637.382,-967.384,-917.852,-671.536,-864.297,-406.444,-764.787,-578.106,-0.030,0.994,-0.054,-0.214,-1.465,0.610,93.333,11.000,1.000
-777.751,-816.822,-824.422,-499.874,-735.194,-287.801,-669.390,-469.476,-0.029,0.996,-0.056,-0.275,-1.404,0.610,93.333,12.000,1.000
-749.499,-829.697,-848.383,-425.845,-726.253,-240.773,-675.738,-446.677,-0.029,0.996,-0.056,-0.336,-1.129,0.549,93.333,13.000,1.000
-828.982,-909.805,-1024.783,-410.646,-792.503,-273.049,-770.241,-502.378,-0.029,0.996,-0.053,-0.305,-0.977,0.458,93.333,14.000,1.000
-826.836,-854.641,-979.006,-279.754,-636.935,-275.910,-764.251,-462.949,-0.029,0.996,-0.055,-0.244,-0.824,0.427,93.333,15.000,1.000
-660.896,-766.128,-660.181,-174.969,-512.928,-330.895,-680.298,-477.076,-0.031,0.996,-0.055,-0.153,-0.580,0.458,93.333,16.000,1.000
-453.651,-639.618,-532.329,-217.348,-285.834,-164.777,-467.688,-462.145,-0.032,0.995,-0.054,-0.214,-0.366,0.397,93.333,17.000,1.000
-263.125,-423.521,-350.922,-218.511,-220.925,-113.994,-225.574,-384.361,-0.034,0.999,-0.052,-0.061,-0.244,0.275,93.333,18.000,1.000
-216.991,-305.682,-235.766,-210.911,-244.170,-166.923,-178.725,-215.381,-0.038,0.999,-0.053,0.000,-0.183,0.214,93.333,19.000,1.000
-209.659,-265.718,-215.113,-203.759,-232.995,-201.613,-172.913,-163.794,-0.042,0.999,-0.054,-0.153,-0.153,0.275,93.333,20.000,1.000
-203.848,-256.419,-208.229,-197.679,-219.405,-184.357,-168.532,-157.625,-0.043,1.000,-0.053,-0.061,-0.183,0.122,93.333,21.000,1.000
-198.573,-249.982,-202.239,-192.940,-211.537,-176.758,-164.419,-152.528,-0.046,1.002,-0.054,-0.183,-0.183,0.061,93.333,22.000,1.000
-194.103,-243.902,-196.964,-188.112,-205.815,-172.377,-160.843,-148.863,-0.043,1.003,-0.052,-0.336,-0.305,-0.031,93.333,23.000,1.000
-190.169,-238.895,-192.404,-184.000,-200.540,-168.175,-157.893,-145.912,-0.044,1.002,-0.050,-0.488,-0.427,-0.031,93.333,24.000,1.000
-186.056,-233.710,-188.202,-180.423,-195.712,-163.794,-155.300,-142.872,-0.044,1.003,-0.050,-0.702,-0.458,-0.092,93.333,25.000,1.000
-182.658,-228.792,-184.447,-176.936,-191.599,-160.664,-152.618,-139.922,-0.045,1.000,-0.055,-0.702,-0.488,-0.183,93.333,26.000,1.000
-179.172,-225.127,-180.781,-173.360,-187.397,-157.088,-150.293,-137.508,-0.043,0.996,-0.052,-0.824,-0.580,-0.153,93.333,27.000,1.000
-175.774,-220.925,-177.652,-170.231,-183.284,-154.853,-147.879,-135.005,-0.042,0.994,-0.053,-0.763,-0.580,-0.214,93.333,28.000,1.000
-173.092,-216.544,-174.969,-167.817,-179.529,-152.171,-145.912,-132.501,-0.040,0.991,-0.052,-0.641,-0.641,-0.244,93.333,29.000,1.000
-170.678,-212.610,-172.019,-165.224,-176.221,-149.578,-144.482,-130.355,-0.040,0.989,-0.052,-0.702,-0.519,-0.336,93.333,30.000,1.000
-168.085,-209.302,-169.337,-162.452,-173.360,-147.343,-142.962,-128.478,-0.039,0.991,-0.053,-0.641,-0.458,-0.336,93.333,31.000,1.000
-165.492,-205.904,-166.923,-160.217,-170.052,-144.929,-141.352,-126.690,-0.038,0.990,-0.051,-0.580,-0.427,-0.427,93.333,32.000,1.000
-163.078,-202.775,-164.419,-157.982,-167.280,-143.319,-139.922,-125.080,-0.039,0.990,-0.052,-0.366,-0.397,-0.305,93.333,33.000,1.000
-160.933,-200.093,-162.184,-156.105,-164.688,-141.352,-138.849,-123.471,-0.039,0.988,-0.050,-0.366,-0.397,-0.275,93.333,34.000,1.000
-158.876,-197.232,-160.307,-154.406,-162.184,-139.385,-137.508,-122.130,-0.036,0.989,-0.053,-0.061,-0.244,-0.336,93.333,35.000,1.000
-156.999,-194.371,-158.250,-152.439,-159.949,-137.776,-136.256,-120.789,-0.035,0.990,-0.051,0.122,-0.092,-0.366,93.333,36.000,1.000
-155.121,-191.867,-156.641,-150.561,-157.803,-136.167,-135.094,-119.180,-0.034,0.995,-0.051,0.275,-0.092,-0.275,93.333,37.000,1.000
-153.244,-189.453,-154.853,-148.863,-155.926,-135.005,-133.932,-118.107,-0.032,0.995,-0.053,0.305,0.061,-0.153,93.333,38.000,1.000
-151.634,-187.308,-153.065,-147.611,-154.048,-133.574,-133.216,-116.855,-0.033,0.996,-0.051,0.366,0.244,-0.092,93.333,39.000,1.000
-150.472,-184.804,-151.634,-146.180,-152.171,-132.144,-132.054,-115.693,-0.034,0.997,-0.051,0.336,0.397,-0.122,93.333,40.000,1.000
-149.220,-182.569,-150.114,-144.571,-150.293,-130.802,-131.160,-114.620,-0.032,1.000,-0.050,0.305,0.580,-0.244,93.333,41.000,1.000
-147.700,-180.334,-148.773,-143.409,-148.505,-129.908,-130.355,-113.815,-0.032,0.999,-0.051,0.244,0.641,-0.183,93.333,42.000,1.000
-146.270,-178.635,-147.700,-142.068,-146.717,-128.657,-129.461,-112.921,-0.033,1.002,-0.054,0.183,0.732,-0.275,93.333,43.000,1.000
-145.018,-176.847,-146.538,-141.174,-145.465,-127.405,-128.925,-111.938,-0.033,1.002,-0.053,0.122,1.068,-0.366,93.333,44.000,1.000
-144.035,-175.059,-145.286,-140.101,-144.482,-126.332,-128.120,-111.222,-0.032,0.999,-0.053,0.061,1.129,-0.305,93.333,45.000,1.000
-143.319,-173.271,-144.213,-138.938,-143.141,-125.259,-127.494,-110.596,-0.033,0.997,-0.055,0.122,1.282,-0.366,93.333,46.000,1.000
-142.068,-171.840,-143.230,-138.134,-141.799,-124.812,-126.958,-109.702,-0.037,0.996,-0.053,0.092,1.312,-0.336,93.333,47.000,1.000
-140.995,-170.231,-142.157,-137.150,-140.637,-123.829,-126.421,-108.987,-0.039,0.994,-0.054,0.214,1.343,-0.488,93.333,48.000,1.000
-140.101,-168.890,-140.727,-136.077,-139.475,-123.113,-125.796,-108.361,-0.044,0.995,-0.056,0.275,1.434,-0.671,93.333,49.000,1.000
-139.207,-167.370,-139.922,-135.094,-138.402,-122.577,-125.080,-107.646,-0.046,0.998,-0.053,0.336,1.465,-0.702,93.333,50.000,1.000
-138.313,-166.029,-139.564,-134.468,-137.419,-121.772,-124.902,-106.931,-0.047,1.001,-0.052,0.305,1.465,-0.641,93.333,51.000,1.000
-137.597,-164.688,-139.028,-133.842,-136.435,-120.789,-124.276,-106.484,-0.049,1.004,-0.056,0.336,1.373,-0.732,93.333,52.000,1.000
-136.971,-163.525,-137.955,-133.127,-135.809,-120.074,-123.739,-106.037,-0.050,1.004,-0.052,0.305,1.282,-0.916,93.333,53.000,1.000
-136.077,-162.363,-137.150,-132.322,-134.736,-119.448,-123.292,-105.590,-0.050,1.007,-0.051,0.397,1.251,-0.793,93.333,54.000,1.000
-135.273,-161.469,-136.346,-131.339,-133.842,-119.090,-122.935,-104.696,-0.050,1.009,-0.051,0.305,1.129,-0.549,93.333,55.000,1.000
-134.468,-160.664,-135.630,-130.802,-133.127,-118.554,-122.488,-104.070,-0.051,1.010,-0.051,0.183,1.038,-0.610,93.333,56.000,1.000
-134.021,-159.502,-135.094,-130.445,-132.859,-118.017,-122.041,-103.891,-0.053,1.011,-0.053,0.122,0.854,-0.519,93.333,57.000,1.000
-133.485,-158.340,-134.647,-130.266,-132.054,-117.570,-121.772,-103.623,-0.052,1.011,-0.050,-0.092,0.671,-0.305,93.333,58.000,1.000
-133.127,-157.535,-134.021,-129.640,-131.160,-117.123,-121.504,-102.997,-0.052,1.010,-0.048,-0.214,0.488,-0.214,93.333,59.000,1.000
-132.412,-156.820,-133.574,-129.104,-130.445,-116.587,-121.236,-102.550,-0.054,1.008,-0.047,-0.244,0.305,-0.061,93.333,60.000,1.000
-131.875,-155.747,-133.127,-128.657,-129.998,-116.229,-120.789,-102.282,-0.055,1.005,-0.049,-0.366,0.092,0.061,93.333,61.000,1.000
-131.518,-155.211,-132.591,-128.031,-129.461,-115.871,-120.789,-102.013,-0.055,1.004,-0.047,-0.488,0.000,0.305,93.333,62.000,1.000
-130.981,-154.763,-132.233,-127.405,-129.014,-115.246,-120.431,-101.566,-0.056,1.001,-0.048,-0.427,-0.061,0.641,93.333,63.000,1.000
-130.713,-153.959,-131.786,-126.869,-128.299,-114.799,-119.895,-101.209,-0.054,0.998,-0.046,-0.366,-0.336,0.641,93.333,64.000,1.000
-130.355,-153.333,-131.428,-126.690,-128.031,-114.530,-119.537,-100.940,-0.055,0.996,-0.046,-0.122,-0.580,0.763,93.333,65.000,1.000
-129.819,-152.618,-130.713,-126.421,-127.494,-114.173,-119.269,-100.672,-0.054,0.997,-0.045,0.061,-0.824,0.854,93.333,66.000,1.000
-129.283,-151.992,-130.534,-125.974,-126.869,-113.994,-119.269,-100.583,-0.050,0.998,-0.049,0.244,-1.068,1.007,93.333,67.000,1.000
-129.104,-151.366,-130.087,-125.527,-126.421,-113.636,-119.090,-100.225,-0.051,0.998,-0.048,0.427,-1.282,1.068,93.333,68.000,1.000
-128.657,-150.830,-129.372,-125.349,-126.243,-113.100,-119.001,-99.868,-0.046,1.001,-0.051,0.610,-1.526,1.160,93.333,69.000,1.000
-127.941,-150.204,-129.372,-124.991,-125.796,-112.832,-118.643,-99.778,-0.043,1.000,-0.050,0.671,-1.526,1.129,93.333,70.000,1.000
-127.852,-149.578,-129.014,-124.455,-125.527,-112.653,-118.554,-99.599,-0.042,1.002,-0.048,0.793,-1.465,1.160,93.333,71.000,1.000
-127.494,-148.952,-128.746,-124.186,-125.349,-112.474,-118.107,-99.331,-0.039,1.002,-0.050,0.916,-1.373,1.190,93.333,72.000,1.000
-127.047,-148.594,-128.299,-124.007,-124.812,-112.027,-117.749,-99.242,-0.038,1.002,-0.049,0.793,-1.373,1.190,93.333,73.000,1.000
-126.869,-148.505,-128.031,-123.739,-124.186,-112.116,-117.660,-98.974,-0.037,1.001,-0.045,0.885,-1.282,1.160,93.333,74.000,1.000
-126.779,-147.879,-127.763,-123.471,-123.918,-111.848,-117.660,-98.705,-0.035,1.002,-0.052,0.977,-1.129,1.068,93.333,75.000,1.000
-126.243,-147.611,-127.584,-123.113,-123.829,-111.669,-117.391,-98.526,-0.036,1.006,-0.046,0.977,-1.007,1.068,93.333,76.000,1.000
-126.243,-147.253,-127.316,-123.024,-123.560,-111.401,-117.034,-98.348,-0.036,1.005,-0.048,0.977,-0.854,1.007,93.333,77.000,1.000
-125.885,-147.164,-127.137,-123.024,-123.382,-111.133,-117.123,-98.258,-0.037,1.007,-0.047,0.854,-0.671,0.946,93.333,78.000,1.000
-125.706,-146.717,-126.958,-122.577,-123.024,-110.954,-117.123,-97.990,-0.040,1.006,-0.048,0.763,-0.519,0.854,93.333,79.000,1.000
-125.706,-146.717,-126.958,-122.577,-123.024,-110.954,-117.123,-97.990,-0.040,1.006,-0.048,0.763,-0.519,0.854,93.333,80.000,0.000
-125.706,-146.717,-126.958,-122.577,-123.024,-110.954,-117.123,-97.990,-0.040,1.006,-0.048,0.763,-0.519,0.854,93.333,81.000,0.000
-125.706,-146.717,-126.958,-122.577,-123.024,-110.954,-117.123,-97.990,-0.040,1.006,-0.048,0.763,-0.519,0.854,93.333,82.000,0.000
-125.706,-146.717,-126.958,-122.577,-123.024,-110.954,-117.123,-97.990,-0.040,1.006,-0.048,0.763,-0.519,0.854,93.333,83.000,0.000
-125.706,-146.717,-126.958,-122.577,-123.024,-110.954,-117.123,-97.990,-0.040,1.006,-0.048,0.763,-0.519,0.854,93.333,84.000,0.000
-125.706,-146.717,-126.958,-122.577,-123.024,-110.954,-117.123,-97.990,-0.040,1.006,-0.048,0.763,-0.519,0.854,93.333,85.000,0.000
-125.706,-146.717,-126.958,-122.577,-123.024,-110.954,-117.123,-97.990,-0.040,1.006,-0.048,0.763,-0.519,0.854,93.333,86.000,0.000
-125.706,-146.717,-126.958,-122.577,-123.024,-110.954,-117.123,-97.990,-0.040,1.006,-0.048,0.763,-0.519,0.854,93.333,87.000,0.000
-125.706,-146.717,-126.958,-122.577,-123.024,-110.954,-117.123,-97.990,-0.040,1.006,-0.048,0.763,-0.519,0.854,93.333,88.000,0.000
-125.706,-146.717,-126.958,-122.577,-123.024,-110.954,-117.123,-97.990,-0.040,1.006,-0.048,0.763,-0.519,0.854,93.333,89.000,0.000
-125.706,-146.717,-126.958,-122.577,-123.024,-110.954,-117.123,-97.990,-0.040,1.006,-0.048,0.763,-0.519,0.854,93.333,90.000,0.000
-125.706,-146.717,-126.958,-122.577,-123.024,-110.954,-117.123,-97.990,-0.040,1.006,-0.048,0.763,-0.519,0.854,93.333,91.000,0.000
-125.706,-146.717,-126.958,-122.577,-123.024,-110.954,-117.123,-97.990,-0.040,1.006,-0.048,0.763,-0.519,0.854,93.333,92.000,0.000
-125.706,-146.717,-126.958,-122.577,-123.024,-110.954,-117.123,-97.990,-0.040,1.006,-0.048,0.763,-0.519,0.854,93.333,93.000,0.000
-125.706,-146.717,-126.958,-122.577,-123.024,-110.954,-117.123,-97.990,-0.040,1.006,-0.048,0.763,-0.519,0.854,93.333,94.000,0.000
-125.706,-146.717,-126.958,-122.577,-123.024,-110.954,-117.123,-97.990,-0.040,1.006,-0.048,0.763,-0.519,0.854,93.333,95.000,0.000
-125.706,-146.717,-126.958,-122.577,-123.024,-110.954,-117.123,-97.990,-0.040,1.006,-0.048,0.763,-0.519,0.854,93.333,96.000,0.000
-125.706,-146.717,-126.958,-122.577,-123.024,-110.954,-117.123,-97.990,-0.040,1.006,-0.048,0.763,-0.519,0.854,93.333,97.000,0.000
-125.706,-146.717,-126.958,-122.577,-123.024,-110.954,-117.123,-97.990,-0.040,1.006,-0.048,0.763,-0.519,0.854,93.333,98.000,0.000
-125.706,-146.717,-126.958,-122.577,-123.024,-110.954,-117.123,-97.990,-0.040,1.006,-0.048,0.763,-0.519,0.854,93.333,99.000,0.000
-125.706,-146.717,-126.958,-122.577,-123.024,-110.954,-117.123,-97.990,-0.040,1.006,-0.048,0.763,-0.519,0.854,93.333,100.000,0.000
-125.706,-146.717,-126.958,-122.577,-123.024,-110.954,-117.123,-97.990,-0.040,1.006,-0.048,0.763,-0.519,0.854,93.333,101.000,0.000
-125.706,-146.717,-126.958,-122.577,-123.024,-110.954,-117.123,-97.990,-0.040,1.006,-0.048,0.763,-0.519,0.854,93.333,102.000,0.000
-125.706,-146.717,-126.958,-122.577,-123.024,-110.954,-117.123,-97.990,-0.040,1.006,-0.048,0.763,-0.519,0.854,93.333,103.000,0.000
-125.706,-146.717,-126.958,-122.577,-123.024,-110.954,-117.123,-97.990,-0.040,1.006,-0.048,0.763,-0.519,0.854,93.333,104.000,0.000
-125.706,-146.717,-126.958,-122.577,-123.024,-110.954,-117.123,-97.990,-0.040,1.006,-0.048,0.763,-0.519,0.854,93.333,105.000,0.000
-125.706,-146.717,-126.958,-122.577,-123.024,-110.954,-117.123,-97.990,-0.040,1.006,-0.048,0.763,-0.519,0.854,93.333,106.000,0.000
-125.706,-146.717,-126.958,-122.577,-123.024,-110.954,-117.123,-97.990,-0.040,1.006,-0.048,0.763,-0.519,0.854,93.333,107.000,0.000
-125.706,-146.717,-126.958,-122.577,-123.024,-110.954,-117.123,-97.990,-0.040,1.006,-0.048,0.763,-0.519,0.854,93.333,108.000,0.000
-125.706,-146.717,-126.958,-122.577,-123.024,-110.954,-117.123,-97.990,-0.040,1.006,-0.048,0.763,-0.519,0.854,93.333,109.000,0.000
-125.706,-146.717,-126.958,-122.577,-123.024,-110.954,-117.123,-97.990,-0.040,1.006,-0.048,0.763,-0.519,0.854,93.333,110.000,0.000
-125.706,-146.717,-126.958,-122.577,-123.024,-110.954,-117.123,-97.990,-0.040,1.006,-0.048,0.763,-0.519,0.854,93.333,111.000,0.000
-125.706,-146.717,-126.958,-122.577,-123.024,-110.954,-117.123,-97.990,-0.040,1.006,-0.048,0.763,-0.519,0.854,93.333,112.000,0.000
-125.706,-146.717,-126.958,-122.577,-123.024,-110.954,-117.123,-97.990,-0.040,1.006,-0.048,0.763,-0.519,0.854,93.333,113.000,0.000
-125.706,-146.717,-126.958,-122.577,-123.024,-110.954,-117.123,-97.990,-0.040,1.006,-0.048,0.763,-0.519,0.854,93.333,114.000,0.000
-125.706,-146.717,-126.958,-122.577,-123.024,-110.954,-117.123,-97.990,-0.040,1.006,-0.048,0.763,-0.519,0.854,93.333,115.000,0.000
-125.706,-146.717,-126.958,-122.577,-123.024,-110.954,-117.123,-97.990,-0.040,1.006,-0.048,0.763,-0.519,0.854,93.333,116.000,0.000
-125.706,-146.717,-126.958,-122.577,-123.024,-110.954,-117.123,-97.990,-0.040,1.006,-0.048,0.763,-0.519,0.854,93.333,117.000,0.000
-125.706,-146.717,-126.958,-122.577,-123.024,-110.954,-117.123,-97.990,-0.040,1.006,-0.048,0.763,-0.519,0.854,93.333,118.000,0.000
-125.706,-146.717,-126.958,-122.577,-123.024,-110.954,-117.123,-97.990,-0.040,1.006,-0.048,0.763,-0.519,0.854,93.333,119.000,0.000
-125.706,-146.717,-126.958,-122.577,-123.024,-110.954,-117.123,-97.990,-0.040,1.006,-0.048,0.763,-0.519,0.854,93.333,120.000,0.000
-125.706,-146.717,-126.958,-122.577,-123.024,-110.954,-117.123,-97.990,-0.040,1.006,-0.048,0.763,-0.519,0.854,93.333,121.000,0.000
-125.706,-146.717,-126.958,-122.577,-123.024,-110.954,-117.123,-97.990,-0.040,1.006,-0.048,0.763,-0.519,0.854,93.333,122.000,0.000
-125.706,-146.717,-126.958,-122.577,-123.024,-110.954,-117.123,-97.990,-0.040,1.006,-0.048,0.763,-0.519,0.854,93.333,123.000,0.000
-125.706,-146.717,-126.958,-122.577,-123.024,-110.954,-117.123,-97.990,-0.040,1.006,-0.048,0.763,-0.519,0.854,93.333,124.000,0.000
-125.706,-146.717,-126.958,-122.577,-123.024,-110.954,-117.123,-97.990,-0.040,1.006,-0.048,0.763,-0.519,0.854,93.333,125.000,0.000
-125.706,-146.717,-126.958,-122.577,-123.024,-110.954,-117.123,-97.990,-0.040,1.006,-0.048,0.763,-0.519,0.854,93.333,126.000,0.000
-125.706,-146.717,-126.958,-122.577,-123.024,-110.954,-117.123,-97.990,-0.040,1.006,-0.048,0.763,-0.519,0.854,93.333,127.000,0.000
-125.706,-146.717,-126.958,-122.577,-123.024,-110.954,-117.123,-97.990,-0.040,1.006,-0.048,0.763,-0.519,0.854,93.333,128.000,0.000
-125.706,-146.717,-126.958,-122.577,-123.024,-110.954,-117.123,-97.990,-0.040,1.006,-0.048,0.763,-0.519,0.854,93.333,129.000,0.000
-121.504,-139.296,-122.398,-118.375,-117.928,-107.020,-114.262,-94.861,-0.027,1.000,-0.065,1.129,3.540,0.763,93.333,130.000,1.000
-121.236,-139.296,-122.488,-118.464,-117.838,-107.110,-114.352,-94.682,-0.030,0.998,-0.061,0.732,3.418,0.854,93.333,131.000,1.000
-121.236,-139.207,-122.577,-118.285,-117.928,-107.288,-114.262,-94.682,-0.031,0.998,-0.061,0.549,3.387,0.946,93.333,132.000,1.000
-121.236,-139.117,-122.577,-118.196,-118.017,-107.288,-114.173,-94.593,-0.031,0.994,-0.061,0.336,3.235,1.068,93.333,133.000,1.000
-121.236,-139.207,-122.398,-118.375,-118.017,-107.199,-114.083,-94.414,-0.027,0.989,-0.060,0.336,3.143,1.190,93.333,134.000,1.000
-121.236,-139.385,-122.488,-118.196,-118.107,-107.199,-114.083,-94.682,-0.026,0.985,-0.066,0.336,3.174,1.251,93.333,135.000,1.000
-121.057,-139.385,-122.130,-118.285,-117.749,-107.020,-114.262,-94.503,-0.024,0.980,-0.068,0.397,3.113,1.251,93.333,136.000,1.000
-121.057,-139.028,-122.130,-118.285,-117.749,-107.020,-113.994,-94.771,-0.023,0.983,-0.064,0.519,3.174,1.190,93.333,137.000,1.000
-121.146,-138.938,-122.130,-118.196,-117.749,-107.020,-114.173,-94.682,-0.023,0.983,-0.067,0.854,3.143,1.099,93.333,138.000,1.000
-121.057,-138.938,-122.130,-118.196,-117.838,-106.931,-113.994,-94.682,-0.026,0.984,-0.067,0.977,3.082,0.916,93.333,139.000,1.000
-120.968,-139.028,-122.041,-118.464,-117.928,-106.841,-114.173,-94.682,-0.027,0.988,-0.066,1.038,3.021,0.854,93.333,140.000,1.000
-121.057,-139.117,-122.130,-118.375,-117.749,-107.020,-113.994,-94.593,-0.031,0.993,-0.063,1.160,2.930,0.732,93.333,141.000,1.000
-121.146,-139.385,-122.219,-118.107,-117.749,-106.752,-114.083,-94.414,-0.027,1.000,-0.064,1.160,2.808,0.580,93.333,142.000,1.000
-121.146,-138.849,-122.219,-118.017,-117.570,-106.931,-114.262,-94.503,-0.028,1.003,-0.068,0.977,2.716,0.580,93.333,143.000,1.000
-121.146,-138.849,-122.219,-118.017,-117.570,-106.931,-114.262,-94.503,-0.028,1.003,-0.068,0.977,2.716,0.580,93.333,144.000,0.000
-121.146,-138.849,-122.219,-118.017,-117.570,-106.931,-114.262,-94.503,-0.028,1.003,-0.068,0.977,2.716,0.580,93.333,145.000,0.000
-121.146,-138.849,-122.219,-118.017,-117.570,-106.931,-114.262,-94.503,-0.028,1.003,-0.068,0.977,2.716,0.580,93.333,146.000,0.000
-121.146,-138.849,-122.219,-118.017,-117.570,-106.931,-114.262,-94.503,-0.028,1.003,-0.068,0.977,2.716,0.580,93.333,147.000,0.000
-121.146,-138.849,-122.219,-118.017,-117.570,-106.931,-114.262,-94.503,-0.028,1.003,-0.068,0.977,2.716,0.580,93.333,148.000,0.000
-121.146,-138.849,-122.219,-118.017,-117.570,-106.931,-114.262,-94.503,-0.028,1.003,-0.068,0.977,2.716,0.580,93.333,149.000,0.000
-121.146,-138.849,-122.219,-118.017,-117.570,-106.931,-114.262,-94.503,-0.028,1.003,-0.068,0.977,2.716,0.580,93.333,150.000,0.000
-121.146,-138.849,-122.219,-118.017,-117.570,-106.931,-114.262,-94.503,-0.028,1.003,-0.068,0.977,2.716,0.580,93.333,151.000,0.000
-121.146,-138.849,-122.219,-118.017,-117.570,-106.931,-114.262,-94.503,-0.028,1.003,-0.068,0.977,2.716,0.580,93.333,152.000,0.000
-121.146,-138.849,-122.219,-118.017,-117.570,-106.931,-114.262,-94.503,-0.028,1.003,-0.068,0.977,2.716,0.580,93.333,153.000,0.000
-121.146,-138.849,-122.219,-118.017,-117.570,-106.931,-114.262,-94.503,-0.028,1.003,-0.068,0.977,2.716,0.580,93.333,154.000,0.000
-121.146,-138.849,-122.219,-118.017,-117.570,-106.931,-114.262,-94.503,-0.028,1.003,-0.068,0.977,2.716,0.580,93.333,155.000,0.000
-121.146,-138.849,-122.219,-118.017,-117.570,-106.931,-114.262,-94.503,-0.028,1.003,-0.068,0.977,2.716,0.580,93.333,156.000,0.000
-121.146,-139.117,-122.130,-117.928,-117.749,-106.841,-112.921,-94.235,-0.024,0.998,-0.058,-2.014,0.946,0.488,93.333,157.000,1.000
-120.878,-139.028,-122.130,-118.196,-117.570,-106.841,-112.832,-94.503,-0.024,0.993,-0.058,-1.892,0.824,0.641,93.333,158.000,1.000
-120.789,-139.028,-122.130,-118.017,-117.660,-106.663,-113.010,-94.503,-0.024,0.994,-0.055,-1.678,0.671,0.641,93.333,159.000,1.000
-120.878,-139.117,-122.041,-117.928,-117.660,-106.931,-112.832,-94.324,-0.025,0.993,-0.053,-1.465,0.671,0.702,93.333,160.000,1.000
-120.878,-139.385,-121.862,-117.928,-117.749,-106.931,-112.563,-94.324,-0.026,0.992,-0.056,-1.221,0.580,0.885,93.333,161.000,1.000
-120.878,-139.654,-121.862,-117.838,-117.928,-106.752,-112.206,-94.503,-0.028,0.995,-0.055,-1.038,0.366,1.007,93.333,162.000,1.000
-120.878,-139.475,-121.772,-118.017,-118.107,-106.931,-112.027,-94.414,-0.028,0.996,-0.053,-0.854,0.275,1.129,93.333,163.000,1.000
-120.699,-139.385,-121.772,-117.928,-118.017,-106.931,-111.848,-94.414,-0.030,0.996,-0.052,-0.641,0.153,1.129,93.333,164.000,1.000
-120.699,-139.564,-121.951,-118.017,-118.017,-106.931,-111.669,-94.414,-0.030,0.996,-0.055,-0.610,-0.092,1.282,93.333,165.000,1.000
-120.789,-139.475,-121.951,-118.017,-118.107,-106.931,-111.669,-94.235,-0.031,0.996,-0.052,-0.488,-0.214,1.404,93.333,166.000,1.000
-120.699,-139.475,-121.862,-117.838,-118.196,-106.931,-111.580,-94.503,-0.030,0.996,-0.051,-0.427,-0.397,1.343,93.333,167.000,1.000
-120.878,-139.564,-121.772,-118.107,-118.107,-106.752,-111.491,-94.503,-0.029,0.998,-0.051,-0.214,-0.488,1.343,93.333,168.000,1.000
-120.878,-139.654,-121.772,-118.017,-118.196,-106.573,-111.401,-94.414,-0.029,0.997,-0.054,-0.153,-0.702,1.312,93.333,169.000,1.000
-120.610,-140.011,-121.951,-117.749,-118.375,-106.841,-111.133,-94.414,-0.027,0.996,-0.052,-0.061,-1.007,1.404,93.333,170.000,1.000
-120.610,-140.011,-122.041,-117.838,-118.285,-106.752,-110.775,-94.146,-0.025,0.995,-0.050,0.153,-1.129,1.495,93.333,171.000,1.000
-120.968,-140.011,-121.951,-117.749,-118.196,-106.752,-110.596,-94.235,-0.024,0.994,-0.049,0.336,-1.282,1.587,93.333,172.000,1.000
-120.968,-140.011,-121.951,-117.749,-118.196,-106.752,-110.596,-94.235,-0.024,0.994,-0.049,0.336,-1.282,1.587,93.333,173.000,0.000
-120.968,-140.011,-121.951,-117.749,-118.196,-106.752,-110.596,-94.235,-0.024,0.994,-0.049,0.336,-1.282,1.587,93.333,174.000,0.000
-120.968,-140.011,-121.951,-117.749,-118.196,-106.752,-110.596,-94.235,-0.024,0.994,-0.049,0.336,-1.282,1.587,93.333,175.000,0.000
-120.968,-140.011,-121.951,-117.749,-118.196,-106.752,-110.596,-94.235,-0.024,0.994,-0.049,0.336,-1.282,1.587,93.333,176.000,0.000
-120.968,-140.011,-121.951,-117.749,-118.196,-106.752,-110.596,-94.235,-0.024,0.994,-0.049,0.336,-1.282,1.587,93.333,177.000,0.000
-120.968,-140.011,-121.951,-117.749,-118.196,-106.752,-110.596,-94.235,-0.024,0.994,-0.049,0.336,-1.282,1.587,93.333,178.000,0.000
-120.968,-140.011,-121.951,-117.749,-118.196,-106.752,-110.596,-94.235,-0.024,0.994,-0.049,0.336,-1.282,1.587,93.333,179.000,0.000
-120.699,-140.727,-121.772,-117.302,-118.822,-106.663,-108.808,-94.414,-0.021,1.000,-0.054,1.923,-2.411,1.678,93.333,180.000,1.000
-120.878,-140.727,-121.951,-117.481,-118.554,-106.752,-108.719,-94.414,-0.018,1.003,-0.054,1.984,-2.625,1.740,93.333,181.000,1.000
-120.878,-140.995,-121.951,-117.570,-118.643,-106.931,-108.451,-94.324,-0.016,1.004,-0.053,1.892,-2.625,1.801,93.333,182.000,1.000
-120.878,-140.995,-121.951,-117.481,-119.001,-106.752,-108.361,-94.235,-0.013,1.006,-0.052,1.862,-2.686,1.740,93.333,183.000,1.000
-120.878,-141.174,-121.951,-117.570,-119.180,-106.841,-108.272,-94.235,-0.012,1.005,-0.052,1.862,-2.716,1.648,93.333,184.000,1.000
-120.789,-141.442,-121.772,-117.570,-119.090,-106.931,-108.093,-94.324,-0.011,1.006,-0.052,1.862,-2.655,1.587,93.333,185.000,1.000
-120.699,-141.084,-121.593,-117.391,-119.180,-106.752,-107.735,-94.324,-0.006,1.005,-0.055,1.801,-2.625,1.587,93.333,186.000,1.000
-120.521,-141.352,-121.772,-117.213,-119.269,-106.752,-107.646,-94.324,-0.005,1.005,-0.058,1.648,-2.441,1.404,93.333,187.000,1.000
-120.610,-141.442,-121.862,-117.213,-119.358,-106.841,-107.378,-94.324,-0.006,1.004,-0.060,1.556,-2.319,1.373,93.333,188.000,1.000
-120.789,-141.621,-121.683,-116.944,-119.358,-106.573,-107.020,-94.235,-0.007,1.004,-0.060,1.404,-2.350,1.129,93.333,189.000,1.000
-120.878,-141.799,-121.683,-117.034,-119.448,-106.573,-106.931,-94.235,-0.008,1.004,-0.060,1.404,-2.258,1.038,93.333,190.000,1.000
-120.699,-141.799,-121.772,-116.855,-119.180,-106.841,-107.020,-93.073,-0.011,1.003,-0.061,1.343,-2.136,0.916,93.333,191.000,1.000
-120.610,-142.068,-119.001,-116.944,-119.448,-91.285,-96.470,-46.670,-0.012,1.002,-0.058,1.373,-2.014,0.854,93.333,192.000,1.000
-120.610,-141.621,-64.909,-108.451,-95.218,14.752,-11.712,115.246,-0.012,1.004,-0.060,1.282,-1.953,0.732,93.333,193.000,1.000
-104.338,-118.375,56.863,-40.323,10.908,179.350,150.561,300.229,-0.013,1.002,-0.061,1.190,-1.831,0.610,93.333,194.000,1.000
-25.034,-29.504,211.716,98.079,172.466,344.843,326.872,474.125,-0.017,1.003,-0.060,0.977,-1.923,0.458,93.333,195.000,1.000
111.759,111.580,379.980,272.423,341.356,513.107,499.517,648.111,-0.018,0.997,-0.057,1.038,-1.923,0.427,93.333,196.000,1.000
111.759,111.580,379.980,272.423,341.356,513.107,499.517,648.111,-0.018,0.997,-0.057,1.038,-1.923,0.427,93.333,197.000,0.000
111.759,111.580,379.980,272.423,341.356,513.107,499.517,648.111,-0.018,0.997,-0.057,1.038,-1.923,0.427,93.333,198.000,0.000
111.759,111.580,379.980,272.423,341.356,513.107,499.517,648.111,-0.018,0.997,-0.057,1.038,-1.923,0.427,93.333,199.000,0.000
111.759,111.580,379.980,272.423,341.356,513.107,499.517,648.111,-0.018,0.997,-0.057,1.038,-1.923,0.427,93.333,200.000,0.000
111.759,111.580,379.980,272.423,341.356,513.107,499.517,648.111,-0.018,0.997,-0.057,1.038,-1.923,0.427,93.333,201.000,0.000
111.759,111.580,379.980,272.423,341.356,513.107,499.517,648.111,-0.018,0.997,-0.057,1.038,-1.923,0.427,93.333,202.000,0.000
111.759,111.580,379.980,272.423,341.356,513.107,499.517,648.111,-0.018,0.997,-0.057,1.038,-1.923,0.427,93.333,203.000,0.000
111.759,111.580,379.980,272.423,341.356,513.107,499.517,648.111,-0.018,0.997,-0.057,1.038,-1.923,0.427,93.333,204.000,0.000
111.759,111.580,379.980,272.423,341.356,513.107,499.517,648.111,-0.018,0.997,-0.057,1.038,-1.923,0.427,93.333,205.000,0.000
111.759,111.580,379.980,272.423,341.356,513.107,499.517,648.111,-0.018,0.997,-0.057,1.038,-1.923,0.427,93.333,206.000,0.000
111.759,111.580,379.980,272.423,341.356,513.107,499.517,648.111,-0.018,0.997,-0.057,1.038,-1.923,0.427,93.333,207.000,0.000
111.759,111.580,379.980,272.423,341.356,513.107,499.517,648.111,-0.018,0.997,-0.057,1.038,-1.923,0.427,93.333,208.000,0.000
111.759,111.580,379.980,272.423,341.356,513.107,499.517,648.111,-0.018,0.997,-0.057,1.038,-1.923,0.427,93.333,209.000,0.000
111.759,111.580,379.980,272.423,341.356,513.107,499.517,648.111,-0.018,0.997,-0.057,1.038,-1.923,0.427,93.333,210.000,0.000
111.759,111.580,379.980,272.423,341.356,513.107,499.517,648.111,-0.018,0.997,-0.057,1.038,-1.923,0.427,93.333,211.000,0.000
111.759,111.580,379.980,272.423,341.356,513.107,499.517,648.111,-0.018,0.997,-0.057,1.038,-1.923,0.427,93.333,212.000,0.000
111.759,111.580,379.980,272.423,341.356,513.107,499.517,648.111,-0.018,0.997,-0.057,1.038,-1.923,0.427,93.333,213.000,0.000
111.759,111.580,379.980,272.423,341.356,513.107,499.517,648.111,-0.018,0.997,-0.057,1.038,-1.923,0.427,93.333,214.000,0.000
111.759,111.580,379.980,272.423,341.356,513.107,499.517,648.111,-0.018,0.997,-0.057,1.038,-1.923,0.427,93.333,215.000,0.000
111.759,111.580,379.980,272.423,341.356,513.107,499.517,648.111,-0.018,0.997,-0.057,1.038,-1.923,0.427,93.333,216.000,0.000
111.759,111.580,379.980,272.423,341.356,513.107,499.517,648.111,-0.018,0.997,-0.057,1.038,-1.923,0.427,93.333,217.000,0.000
111.759,111.580,379.980,272.423,341.356,513.107,499.517,648.111,-0.018,0.997,-0.057,1.038,-1.923,0.427,93.333,218.000,0.000
111.759,111.580,379.980,272.423,341.356,513.107,499.517,648.111,-0.018,0.997,-0.057,1.038,-1.923,0.427,93.333,219.000,0.000
111.759,111.580,379.980,272.423,341.356,513.107,499.517,648.111,-0.018,0.997,-0.057,1.038,-1.923,0.427,93.333,220.000,0.000
111.759,111.580,379.980,272.423,341.356,513.107,499.517,648.111,-0.018,0.997,-0.057,1.038,-1.923,0.427,93.333,221.000,0.000
111.759,111.580,379.980,272.423,341.356,513.107,499.517,648.111,-0.018,0.997,-0.057,1.038,-1.923,0.427,93.333,222.000,0.000
111.759,111.580,379.980,272.423,341.356,513.107,499.517,648.111,-0.018,0.997,-0.057,1.038,-1.923,0.427,93.333,223.000,0.000
111.759,111.580,379.980,272.423,341.356,513.107,499.517,648.111,-0.018,0.997,-0.057,1.038,-1.923,0.427,93.333,224.000,0.000
111.759,111.580,379.980,272.423,341.356,513.107,499.517,648.111,-0.018,0.997,-0.057,1.038,-1.923,0.427,93.333,225.000,0.000
111.759,111.580,379.980,272.423,341.356,513.107,499.517,648.111,-0.018,0.997,-0.057,1.038,-1.923,0.427,93.333,226.000,0.000
111.759,111.580,379.980,272.423,341.356,513.107,499.517,648.111,-0.018,0.997,-0.057,1.038,-1.923,0.427,93.333,227.000,0.000
111.759,111.580,379.980,272.423,341.356,513.107,499.517,648.111,-0.018,0.997,-0.057,1.038,-1.923,0.427,93.333,228.000,0.000
111.759,111.580,379.980,272.423,341.356,513.107,499.517,648.111,-0.018,0.997,-0.057,1.038,-1.923,0.427,93.333,229.000,0.000
111.759,111.580,379.980,272.423,341.356,513.107,499.517,648.111,-0.018,0.997,-0.057,1.038,-1.923,0.427,93.333,230.000,0.000
111.759,111.580,379.980,272.423,341.356,513.107,499.517,648.111,-0.018,0.997,-0.057,1.038,-1.923,0.427,93.333,231.000,0.000
111.759,111.580,379.980,272.423,341.356,513.107,499.517,648.111,-0.018,0.997,-0.057,1.038,-1.923,0.427,93.333,232.000,0.000
111.759,111.580,379.980,272.423,341.356,513.107,499.517,648.111,-0.018,0.997,-0.057,1.038,-1.923,0.427,93.333,233.000,0.000
111.759,111.580,379.980,272.423,341.356,513.107,499.517,648.111,-0.018,0.997,-0.057,1.038,-1.923,0.427,93.333,234.000,0.000
111.759,111.580,379.980,272.423,341.356,513.107,499.517,648.111,-0.018,0.997,-0.057,1.038,-1.923,0.427,93.333,235.000,0.000
111.759,111.580,379.980,272.423,341.356,513.107,499.517,648.111,-0.018,0.997,-0.057,1.038,-1.923,0.427,93.333,236.000,0.000
111.759,111.580,379.980,272.423,341.356,513.107,499.517,648.111,-0.018,0.997,-0.057,1.038,-1.923,0.427,93.333,237.000,0.000
111.759,111.580,379.980,272.423,341.356,513.107,499.517,648.111,-0.018,0.997,-0.057,1.038,-1.923,0.427,93.333,238.000,0.000
111.759,111.580,379.980,272.423,341.356,513.107,499.517,648.111,-0.018,0.997,-0.057,1.038,-1.923,0.427,93.333,239.000,0.000
111.759,111.580,379.980,272.423,341.356,513.107,499.517,648.111,-0.018,0.997,-0.057,1.038,-1.923,0.427,93.333,240.000,0.000
111.759,111.580,379.980,272.423,341.356,513.107,499.517,648.111,-0.018,0.997,-0.057,1.038,-1.923,0.427,93.333,241.000,0.000
111.759,111.580,379.980,272.423,341.356,513.107,499.517,648.111,-0.018,0.997,-0.057,1.038,-1.923,0.427,93.333,242.000,0.000
111.759,111.580,379.980,272.423,341.356,513.107,499.517,648.111,-0.018,0.997,-0.057,1.038,-1.923,0.427,93.333,243.000,0.000
111.759,111.580,379.980,272.423,341.356,513.107,499.517,648.111,-0.018,0.997,-0.057,1.038,-1.923,0.427,93.333,244.000,0.000
111.759,111.580,379.980,272.423,341.356,513.107,499.517,648.111,-0.018,0.997,-0.057,1.038,-1.923,0.427,93.333,245.000,0.000
111.759,111.580,379.980,272.423,341.356,513.107,499.517,648.111,-0.018,0.997,-0.057,1.038,-1.923,0.427,93.333,246.000,0.000
111.759,111.580,379.980,272.423,341.356,513.107,499.517,648.111,-0.018,0.997,-0.057,1.038,-1.923,0.427,93.333,247.000,0.000
111.759,111.580,379.980,272.423,341.356,513.107,499.517,648.111,-0.018,0.997,-0.057,1.038,-1.923,0.427,93.333,248.000,0.000
111.759,111.580,379.980,272.423,341.356,513.107,499.517,648.111,-0.018,0.997,-0.057,1.038,-1.923,0.427,93.333,249.000,0.000
111.759,111.580,379.980,272.423,341.356,513.107,499.517,648.111,-0.018,0.997,-0.057,1.038,-1.923,0.427,93.333,250.000,0.000
111.759,111.580,379.980,272.423,341.356,513.107,499.517,648.111,-0.018,0.997,-0.057,1.038,-1.923,0.427,93.333,251.000,0.000
111.759,111.580,379.980,272.423,341.356,513.107,499.517,648.111,-0.018,0.997,-0.057,1.038,-1.923,0.427,93.333,252.000,0.000
111.759,111.580,379.980,272.423,341.356,513.107,499.517,648.111,-0.018,0.997,-0.057,1.038,-1.923,0.427,93.333,253.000,0.000
111.759,111.580,379.980,272.423,341.356,513.107,499.517,648.111,-0.018,0.997,-0.057,1.038,-1.923,0.427,93.333,254.000,0.000
111.759,111.580,379.980,272.423,341.356,513.107,499.517,648.111,-0.018,0.997,-0.057,1.038,-1.923,0.427,93.333,255.000,0.000
111.759,111.580,379.980,272.423,341.356,513.107,499.517,648.111,-0.018,0.997,-0.057,1.038,-1.923,0.427,93.333,256.000,0.000
111.759,111.580,379.980,272.423,341.356,513.107,499.517,648.111,-0.018,0.997,-0.057,1.038,-1.923,0.427,93.333,257.000,0.000
111.759,111.580,379.980,272.423,341.356,513.107,499.517,648.111,-0.018,0.997,-0.057,1.038,-1.923,0.427,93.333,258.000,0.000
111.759,111.580,379.980,272.423,341.356,513.107,499.517,648.111,-0.018,0.997,-0.057,1.038,-1.923,0.427,93.333,259.000,0.000
111.759,111.580,379.980,272.423,341.356,513.107,499.517,648.111,-0.018,0.997,-0.057,1.038,-1.923,0.427,93.333,260.000,0.000
111.759,111.580,379.980,272.423,341.356,513.107,499.517,648.111,-0.018,0.997,-0.057,1.038,-1.923,0.427,93.333,261.000,0.000
111.759,111.580,379.980,272.423,341.356,513.107,499.517,648.111,-0.018,0.997,-0.057,1.038,-1.923,0.427,93.333,262.000,0.000
111.759,111.580,379.980,272.423,341.356,513.107,499.517,648.111,-0.018,0.997,-0.057,1.038,-1.923,0.427,93.333,263.000,0.000
111.759,111.580,379.980,272.423,341.356,513.107,499.517,648.111,-0.018,0.997,-0.057,1.038,-1.923,0.427,93.333,264.000,0.000
111.759,111.580,379.980,272.423,341.356,513.107,499.517,648.111,-0.018,0.997,-0.057,1.038,-1.923,0.427,93.333,265.000,0.000
111.759,111.580,379.980,272.423,341.356,513.107,499.517,648.111,-0.018,0.997,-0.057,1.038,-1.923,0.427,93.333,266.000,0.000
111.759,111.580,379.980,272.423,341.356,513.107,499.517,648.111,-0.018,0.997,-0.057,1.038,-1.923,0.427,93.333,267.000,0.000
111.759,111.580,379.980,272.423,341.356,513.107,499.517,648.111,-0.018,0.997,-0.057,1.038,-1.923,0.427,93.333,268.000,0.000
111.759,111.580,379.980,272.423,341.356,513.107,499.517,648.111,-0.018,0.997,-0.057,1.038,-1.923,0.427,93.333,269.000,0.000
111.759,111.580,379.980,272.423,341.356,513.107,499.517,648.111,-0.018,0.997,-0.057,1.038,-1.923,0.427,93.333,270.000,0.000
111.759,111.580,379.980,272.423,341.356,513.107,499.517,648.111,-0.018,0.997,-0.057,1.038,-1.923,0.427,93.333,271.000,0.000
111.759,111.580,379.980,272.423,341.356,513.107,499.517,648.111,-0.018,0.997,-0.057,1.038,-1.923,0.427,93.333,272.000,0.000
111.759,111.580,379.980,272.423,341.356,513.107,499.517,648.111,-0.018,0.997,-0.057,1.038,-1.923,0.427,93.333,273.000,0.000
111.759,111.580,379.980,272.423,341.356,513.107,499.517,648.111,-0.018,0.997,-0.057,1.038,-1.923,0.427,93.333,274.000,0.000
111.759,111.580,379.980,272.423,341.356,513.107,499.517,648.111,-0.018,0.997,-0.057,1.038,-1.923,0.427,93.333,275.000,0.000
111.759,111.580,379.980,272.423,341.356,513.107,499.517,648.111,-0.018,0.997,-0.057,1.038,-1.923,0.427,93.333,276.000,0.000
111.759,111.580,379.980,272.423,341.356,513.107,499.517,648.111,-0.018,0.997,-0.057,1.038,-1.923,0.427,93.333,277.000,0.000
111.759,111.580,379.980,272.423,341.356,513.107,499.517,648.111,-0.018,0.997,-0.057,1.038,-1.923,0.427,93.333,278.000,0.000
111.759,111.580,379.980,272.423,341.356,513.107,499.517,648.111,-0.018,0.997,-0.057,1.038,-1.923,0.427,93.333,279.000,0.000
111.759,111.580,379.980,272.423,341.356,513.107,499.517,648.111,-0.018,0.997,-0.057,1.038,-1.923,0.427,93.333,280.000,0.000
111.759,111.580,379.980,272.423,341.356,513.107,499.517,648.111,-0.018,0.997,-0.057,1.038,-1.923,0.427,93.333,281.000,0.000
111.759,111.580,379.980,272.423,341.356,513.107,499.517,648.111,-0.018,0.997,-0.057,1.038,-1.923,0.427,93.333,282.000,0.000
111.759,111.580,379.980,272.423,341.356,513.107,499.517,648.111,-0.018,0.997,-0.057,1.038,-1.923,0.427,93.333,283.000,0.000
111.759,111.580,379.980,272.423,341.356,513.107,499.517,648.111,-0.018,0.997,-0.057,1.038,-1.923,0.427,93.333,284.000,0.000
111.759,111.580,379.980,272.423,341.356,513.107,499.517,648.111,-0.018,0.997,-0.057,1.038,-1.923,0.427,93.333,285.000,0.000
111.759,111.580,379.980,272.423,341.356,513.107,499.517,648.111,-0.018,0.997,-0.057,1.038,-1.923,0.427,93.333,286.000,0.000
111.759,111.580,379.980,272.423,341.356,513.107,499.517,648.111,-0.018,0.997,-0.057,1.038,-1.923,0.427,93.333,287.000,0.000
111.759,111.580,379.980,272.423,341.356,513.107,499.517,648.111,-0.018,0.997,-0.057,1.038,-1.923,0.427,93.333,288.000,0.000
15270.176,15259.269,15654.805,15533.212,15593.024,15776.756,15815.470,15968.713,-0.026,1.002,-0.065,0.305,-2.625,-0.061,93.333,289.000,1.000
15412.244,15401.336,15804.383,15683.146,15742.424,15926.603,15953.782,16106.668,-0.024,1.004,-0.068,0.244,-2.869,-0.183,93.333,290.000,1.000
15587.660,15575.858,15947.166,15826.287,15888.336,16072.515,16105.416,16258.480,-0.022,1.003,-0.065,0.122,-3.021,-0.153,93.333,291.000,1.000
15729.639,15718.105,16071.084,15950.831,16007.068,16191.247,16241.583,16395.721,-0.019,1.001,-0.067,0.092,-3.265,-0.092,93.333,292.000,1.000
15887.263,15875.641,16244.980,16124.370,16165.051,16349.587,16411.902,16565.594,-0.016,0.998,-0.065,-0.092,-3.204,-0.153,93.333,293.000,1.000
16054.364,16042.474,16419.949,16298.804,16357.723,16542.258,16584.279,16738.148,-0.015,0.997,-0.061,-0.061,-3.326,-0.183,93.333,294.000,1.000
16207.340,16195.271,16572.836,16451.422,16512.486,16697.291,16737.613,16891.482,-0.014,0.996,-0.062,-0.031,-3.387,-0.122,93.333,295.000,1.000
16353.252,16341.093,16713.652,16592.059,16658.488,16843.471,16883.883,17037.215,-0.014,0.993,-0.062,0.031,-3.448,-0.214,93.333,296.000,1.000
16502.563,16490.313,16848.209,16725.990,16810.926,16996.178,17035.875,17189.564,-0.012,0.993,-0.063,0.092,-3.418,-0.183,93.333,297.000,1.000
16640.070,16626.838,17013.434,16891.393,16963.992,17149.869,17191.621,17345.670,-0.013,0.993,-0.066,0.092,-3.296,-0.244,93.333,298.000,1.000
16778.830,16765.061,17178.926,17057.064,17114.105,17299.893,17343.703,17497.752,-0.010,0.993,-0.065,0.244,-3.174,-0.153,93.333,299.000,1.000
16778.830,16765.061,17178.926,17057.064,17114.105,17299.893,17343.703,17497.752,-0.010,0.993,-0.065,0.244,-3.174,-0.153,93.333,300.000,0.000
16778.830,16765.061,17178.926,17057.064,17114.105,17299.893,17343.703,17497.752,-0.010,0.993,-0.065,0.244,-3.174,-0.153,93.333,301.000,0.000
16778.830,16765.061,17178.926,17057.064,17114.105,17299.893,17343.703,17497.752,-0.010,0.993,-0.065,0.244,-3.174,-0.153,93.333,302.000,0.000
16778.830,16765.061,17178.926,17057.064,17114.105,17299.893,17343.703,17497.752,-0.010,0.993,-0.065,0.244,-3.174,-0.153,93.333,303.000,0.000
16778.830,16765.061,17178.926,17057.064,17114.105,17299.893,17343.703,17497.752,-0.010,0.993,-0.065,0.244,-3.174,-0.153,93.333,304.000,0.000
16778.830,16765.061,17178.926,17057.064,17114.105,17299.893,17343.703,17497.752,-0.010,0.993,-0.065,0.244,-3.174,-0.153,93.333,305.000,0.000
16778.830,16765.061,17178.926,17057.064,17114.105,17299.893,17343.703,17497.752,-0.010,0.993,-0.065,0.244,-3.174,-0.153,93.333,306.000,0.000
16778.830,16765.061,17178.926,17057.064,17114.105,17299.893,17343.703,17497.752,-0.010,0.993,-0.065,0.244,-3.174,-0.153,93.333,307.000,0.000
16778.830,16765.061,17178.926,17057.064,17114.105,17299.893,17343.703,17497.752,-0.010,0.993,-0.065,0.244,-3.174,-0.153,93.333,308.000,0.000
16778.830,16765.061,17178.926,17057.064,17114.105,17299.893,17343.703,17497.752,-0.010,0.993,-0.065,0.244,-3.174,-0.153,93.333,309.000,0.000
16778.830,16765.061,17178.926,17057.064,17114.105,17299.893,17343.703,17497.752,-0.010,0.993,-0.065,0.244,-3.174,-0.153,93.333,310.000,0.000
16778.830,16765.061,17178.926,17057.064,17114.105,17299.893,17343.703,17497.752,-0.010,0.993,-0.065,0.244,-3.174,-0.153,93.333,311.000,0.000
18742.832,18729.154,19111.814,18990.311,19048.426,19236.270,19277.309,19433.145,-0.020,0.991,-0.065,-0.214,-2.472,0.244,93.333,312.000,1.000
18884.633,18870.596,19254.063,19132.111,19190.582,19378.248,19419.285,19575.301,-0.021,0.990,-0.067,-0.122,-2.563,0.305,93.333,313.000,1.000
19035.283,19021.246,19404.980,19283.209,19341.322,19529.346,19570.563,19726.221,-0.020,0.988,-0.066,-0.031,-2.533,0.305,93.333,314.000,1.000
19182.625,19168.678,19552.412,19431.088,19488.756,19676.689,19718.352,19873.920,-0.021,0.991,-0.063,0.244,-2.594,0.305,93.333,315.000,1.000
19325.678,19312.088,19695.643,19574.229,19632.074,19820.098,19861.404,20017.598,-0.022,0.994,-0.066,0.427,-2.502,0.183,93.333,316.000,1.000
19461.039,19447.002,19831.451,19709.947,19767.258,19955.729,19997.123,20153.139,-0.021,0.997,-0.065,0.488,-2.502,0.214,93.333,317.000,1.000
19604.627,19590.500,19975.129,19853.357,19910.756,20099.227,20140.801,20296.994,-0.024,1.000,-0.065,0.641,-2.594,0.122,93.333,318.000,1.000
19748.303,19733.998,20118.627,19997.123,20054.254,20243.260,20284.656,20440.760,-0.023,1.002,-0.065,0.702,-2.533,0.336,93.333,319.000,1.000
19886.705,19872.400,20257.477,20135.883,20192.746,20382.289,20423.506,20579.342,-0.024,1.004,-0.063,0.641,-2.502,0.458,93.333,320.000,1.000
20018.760,20004.455,20389.889,20268.205,20324.979,20514.611,20555.648,20711.754,-0.024,1.007,-0.064,0.610,-2.625,0.488,93.333,321.000,1.000
20159.219,20144.377,20530.078,20408.307,20464.900,20654.443,20695.750,20852.211,-0.023,1.006,-0.061,0.519,-2.686,0.763,93.333,322.000,1.000
20302.807,20288.143,20673.934,20552.162,20608.578,20798.299,20839.963,20996.156,-0.026,1.005,-0.064,0.397,-2.716,0.824,93.333,323.000,1.000
20441.924,20427.082,20813.230,20691.547,20747.873,20937.863,20979.170,21135.363,-0.025,1.003,-0.066,0.366,-2.838,0.824,93.333,324.000,1.000
20571.295,20556.096,20942.871,20820.920,20877.246,21067.236,21108.631,21265.271,-0.021,1.004,-0.066,0.488,-2.869,0.946,93.333,325.000,1.000
20709.965,20694.498,21081.631,20959.590,21015.916,21205.906,21247.033,21404.121,-0.017,1.003,-0.065,0.427,-2.930,1.038,93.333,326.000,1.000
20851.586,20836.387,21223.430,21101.746,21158.072,21347.795,21389.189,21546.189,-0.010,1.003,-0.064,0.397,-2.747,1.099,93.333,327.000,1.000
20986.859,20971.748,21358.791,21237.109,21292.988,21483.246,21524.910,21681.730,-0.003,1.003,-0.069,0.305,-2.502,1.221,93.333,328.000,1.000
20986.859,20971.748,21358.791,21237.109,21292.988,21483.246,21524.910,21681.730,-0.003,1.003,-0.069,0.305,-2.502,1.221,93.333,329.000,0.000
21249.000,21233.174,21620.754,21499.160,21554.951,21745.477,21786.961,21944.139,0.015,1.005,-0.068,0.183,-1.892,1.343,93.333,330.000,1.000
21390.531,21374.795,21762.375,21640.514,21696.482,21886.830,21928.404,22085.850,0.029,1.007,-0.070,0.061,-1.282,1.251,93.333,331.000,1.000
21527.234,21512.035,21899.703,21777.305,21833.275,22023.711,22065.555,22223.000,0.048,1.008,-0.074,-0.092,-0.458,1.190,93.333,332.000,1.000
21658.127,21642.391,22030.506,21908.555,21964.166,22154.693,22196.445,22353.891,0.069,1.006,-0.073,-0.305,0.702,0.916,93.333,333.000,1.000
21787.855,21772.031,22160.324,22038.195,22093.627,22284.512,22326.176,22483.889,0.094,1.008,-0.074,-0.488,2.014,0.427,93.333,334.000,1.000
21927.600,21911.326,22299.801,22177.938,22233.102,22424.076,22465.828,22623.275,0.120,1.009,-0.074,-0.793,3.754,-0.092,93.333,335.000,1.000
22064.033,22047.941,22436.771,22314.553,22369.537,22560.689,22602.443,22760.156,0.145,1.009,-0.078,-1.221,5.981,-0.854,93.333,336.000,1.000
22199.039,22182.678,22571.865,22449.914,22504.453,22696.053,22737.627,22895.607,0.167,1.006,-0.080,-1.648,8.698,-1.617,93.333,337.000,1.000
22330.557,22314.105,22703.473,22581.521,22636.148,22827.658,22869.502,23027.662,0.187,1.001,-0.082,-1.923,11.871,-2.350,93.333,338.000,1.000
22471.908,22455.279,22844.736,22722.873,22777.232,22968.742,23010.764,23168.568,0.202,0.998,-0.087,-2.075,15.442,-3.418,93.333,339.000,1.000
22610.668,22593.859,22983.496,22862.080,22915.725,23107.771,23149.613,23307.238,0.215,0.997,-0.089,-2.380,19.257,-4.608,93.333,340.000,1.000
22610.668,22593.859,22983.496,22862.080,22915.725,23107.771,23149.613,23307.238,0.215,0.997,-0.089,-2.380,19.257,-4.608,93.333,341.000,0.000
22610.668,22593.859,22983.496,22862.080,22915.725,23107.771,23149.613,23307.238,0.215,0.997,-0.089,-2.380,19.257,-4.608,93.333,342.000,0.000
22610.668,22593.859,22983.496,22862.080,22915.725,23107.771,23149.613,23307.238,0.215,0.997,-0.089,-2.380,19.257,-4.608,93.333,343.000,0.000
22610.668,22593.859,22983.496,22862.080,22915.725,23107.771,23149.613,23307.238,0.215,0.997,-0.089,-2.380,19.257,-4.608,93.333,344.000,0.000
22610.668,22593.859,22983.496,22862.080,22915.725,23107.771,23149.613,23307.238,0.215,0.997,-0.089,-2.380,19.257,-4.608,93.333,345.000,0.000
22610.668,22593.859,22983.496,22862.080,22915.725,23107.771,23149.613,23307.238,0.215,0.997,-0.089,-2.380,19.257,-4.608,93.333,346.000,0.000
22610.668,22593.859,22983.496,22862.080,22915.725,23107.771,23149.613,23307.238,0.215,0.997,-0.089,-2.380,19.257,-4.608,93.333,347.000,0.000
22610.668,22593.859,22983.496,22862.080,22915.725,23107.771,23149.613,23307.238,0.215,0.997,-0.089,-2.380,19.257,-4.608,93.333,348.000,0.000
22610.668,22593.859,22983.496,22862.080,22915.725,23107.771,23149.613,23307.238,0.215,0.997,-0.089,-2.380,19.257,-4.608,93.333,349.000,0.000
22610.668,22593.859,22983.496,22862.080,22915.725,23107.771,23149.613,23307.238,0.215,0.997,-0.089,-2.380,19.257,-4.608,93.333,350.000,0.000
22610.668,22593.859,22983.496,22862.080,22915.725,23107.771,23149.613,23307.238,0.215,0.997,-0.089,-2.380,19.257,-4.608,93.333,351.000,0.000
22610.668,22593.859,22983.496,22862.080,22915.725,23107.771,23149.613,23307.238,0.215,0.997,-0.089,-2.380,19.257,-4.608,93.333,352.000,0.000
22610.668,22593.859,22983.496,22862.080,22915.725,23107.771,23149.613,23307.238,0.215,0.997,-0.089,-2.380,19.257,-4.608,93.333,353.000,0.000
22610.668,22593.859,22983.496,22862.080,22915.725,23107.771,23149.613,23307.238,0.215,0.997,-0.089,-2.380,19.257,-4.608,93.333,354.000,0.000
22610.668,22593.859,22983.496,22862.080,22915.725,23107.771,23149.613,23307.238,0.215,0.997,-0.089,-2.380,19.257,-4.608,93.333,355.000,0.000
22610.668,22593.859,22983.496,22862.080,22915.725,23107.771,23149.613,23307.238,0.215,0.997,-0.089,-2.380,19.257,-4.608,93.333,356.000,0.000
22610.668,22593.859,22983.496,22862.080,22915.725,23107.771,23149.613,23307.238,0.215,0.997,-0.089,-2.380,19.257,-4.608,93.333,357.000,0.000
22610.668,22593.859,22983.496,22862.080,22915.725,23107.771,23149.613,23307.238,0.215,0.997,-0.089,-2.380,19.257,-4.608,93.333,358.000,0.000
22610.668,22593.859,22983.496,22862.080,22915.725,23107.771,23149.613,23307.238,0.215,0.997,-0.089,-2.380,19.257,-4.608,93.333,359.000,0.000
22610.668,22593.859,22983.496,22862.080,22915.725,23107.771,23149.613,23307.238,0.215,0.997,-0.089,-2.380,19.257,-4.608,93.333,360.000,0.000
22610.668,22593.859,22983.496,22862.080,22915.725,23107.771,23149.613,23307.238,0.215,0.997,-0.089,-2.380,19.257,-4.608,93.333,361.000,0.000
22610.668,22593.859,22983.496,22862.080,22915.725,23107.771,23149.613,23307.238,0.215,0.997,-0.089,-2.380,19.257,-4.608,93.333,362.000,0.000
22610.668,22593.859,22983.496,22862.080,22915.725,23107.771,23149.613,23307.238,0.215,0.997,-0.089,-2.380,19.257,-4.608,93.333,363.000,0.000
22610.668,22593.859,22983.496,22862.080,22915.725,23107.771,23149.613,23307.238,0.215,0.997,-0.089,-2.380,19.257,-4.608,93.333,364.000,0.000
22610.668,22593.859,22983.496,22862.080,22915.725,23107.771,23149.613,23307.238,0.215,0.997,-0.089,-2.380,19.257,-4.608,93.333,365.000,0.000
22610.668,22593.859,22983.496,22862.080,22915.725,23107.771,23149.613,23307.238,0.215,0.997,-0.089,-2.380,19.257,-4.608,93.333,366.000,0.000
22610.668,22593.859,22983.496,22862.080,22915.725,23107.771,23149.613,23307.238,0.215,0.997,-0.089,-2.380,19.257,-4.608,93.333,367.000,0.000
22610.668,22593.859,22983.496,22862.080,22915.725,23107.771,23149.613,23307.238,0.215,0.997,-0.089,-2.380,19.257,-4.608,93.333,368.000,0.000
22610.668,22593.859,22983.496,22862.080,22915.725,23107.771,23149.613,23307.238,0.215,0.997,-0.089,-2.380,19.257,-4.608,93.333,369.000,0.000
22610.668,22593.859,22983.496,22862.080,22915.725,23107.771,23149.613,23307.238,0.215,0.997,-0.089,-2.380,19.257,-4.608,93.333,370.000,0.000
22610.668,22593.859,22983.496,22862.080,22915.725,23107.771,23149.613,23307.238,0.215,0.997,-0.089,-2.380,19.257,-4.608,93.333,371.000,0.000
22610.668,22593.859,22983.496,22862.080,22915.725,23107.771,23149.613,23307.238,0.215,0.997,-0.089,-2.380,19.257,-4.608,93.333,372.000,0.000
22610.668,22593.859,22983.496,22862.080,22915.725,23107.771,23149.613,23307.238,0.215,0.997,-0.089,-2.380,19.257,-4.608,93.333,373.000,0.000
22610.668,22593.859,22983.496,22862.080,22915.725,23107.771,23149.613,23307.238,0.215,0.997,-0.089,-2.380,19.257,-4.608,93.333,374.000,0.000
22610.668,22593.859,22983.496,22862.080,22915.725,23107.771,23149.613,23307.238,0.215,0.997,-0.089,-2.380,19.257,-4.608,93.333,375.000,0.000
22610.668,22593.859,22983.496,22862.080,22915.725,23107.771,23149.613,23307.238,0.215,0.997,-0.089,-2.380,19.257,-4.608,93.333,376.000,0.000
22610.668,22593.859,22983.496,22862.080,22915.725,23107.771,23149.613,23307.238,0.215,0.997,-0.089,-2.380,19.257,-4.608,93.333,377.000,0.000
22610.668,22593.859,22983.496,22862.080,22915.725,23107.771,23149.613,23307.238,0.215,0.997,-0.089,-2.380,19.257,-4.608,93.333,378.000,0.000
22610.668,22593.859,22983.496,22862.080,22915.725,23107.771,23149.613,23307.238,0.215,0.997,-0.089,-2.380,19.257,-4.608,93.333,379.000,0.000
22610.668,22593.859,22983.496,22862.080,22915.725,23107.771,23149.613,23307.238,0.215,0.997,-0.089,-2.380,19.257,-4.608,93.333,380.000,0.000
22610.668,22593.859,22983.496,22862.080,22915.725,23107.771,23149.613,23307.238,0.215,0.997,-0.089,-2.380,19.257,-4.608,93.333,381.000,0.000
22610.668,22593.859,22983.496,22862.080,22915.725,23107.771,23149.613,23307.238,0.215,0.997,-0.089,-2.380,19.257,-4.608,93.333,382.000,0.000
22610.668,22593.859,22983.496,22862.080,22915.725,23107.771,23149.613,23307.238,0.215,0.997,-0.089,-2.380,19.257,-4.608,93.333,383.000,0.000
22610.668,22593.859,22983.496,22862.080,22915.725,23107.771,23149.613,23307.238,0.215,0.997,-0.089,-2.380,19.257,-4.608,93.333,384.000,0.000
22610.668,22593.859,22983.496,22862.080,22915.725,23107.771,23149.613,23307.238,0.215,0.997,-0.089,-2.380,19.257,-4.608,93.333,385.000,0.000
22610.668,22593.859,22983.496,22862.080,22915.725,23107.771,23149.613,23307.238,0.215,0.997,-0.089,-2.380,19.257,-4.608,93.333,386.000,0.000
22610.668,22593.859,22983.496,22862.080,22915.725,23107.771,23149.613,23307.238,0.215,0.997,-0.089,-2.380,19.257,-4.608,93.333,387.000,0.000
22610.668,22593.859,22983.496,22862.080,22915.725,23107.771,23149.613,23307.238,0.215,0.997,-0.089,-2.380,19.257,-4.608,93.333,388.000,0.000
40988.184,40965.207,41381.844,41260.340,41289.934,41496.820,41542.598,41711.309,2.073,0.136,-0.934,124.115,-44.922,-86.731,93.333,389.000,1.000
41077.859,41054.883,41471.785,41350.281,41379.875,41586.852,41632.359,41800.984,1.456,0.364,-0.956,101.959,26.581,-164.581,93.333,390.000,1.000
40998.109,40975.043,41391.590,41270.441,41300.125,41506.746,41552.430,41721.055,1.092,0.622,-1.051,68.848,94.910,-225.769,93.333,391.000,1.000
40780.582,40757.336,41173.973,41052.914,41082.598,41289.039,41334.457,41503.438,0.851,0.872,-1.085,30.792,172.150,-264.526,93.333,392.000,1.000
40476.148,40452.727,40869.094,40747.770,40777.898,40984.520,41029.488,41198.199,0.618,1.085,-0.998,-11.932,252.441,-285.065,93.333,393.000,1.000
40044.852,40021.785,40437.527,40316.648,40346.688,40553.309,40598.457,40766.813,0.363,1.233,-0.825,-56.793,321.594,-292.847,93.333,394.000,1.000
39815.434,39792.723,40207.840,40086.781,40117.359,40323.801,40369.039,40537.484,0.103,1.323,-0.669,-104.370,379.181,-291.260,93.333,395.000,1.000
39486.504,39463.527,39878.465,39756.871,39788.074,39994.246,40039.754,40207.750,-0.099,1.327,-0.583,-148.315,430.359,-284.821,93.333,396.000,1.000
39191.281,39168.840,39583.063,39461.469,39493.121,39699.023,39744.621,39912.352,-0.271,1.257,-0.526,-179.169,480.194,-275.146,93.333,397.000,1.000
38913.496,38890.965,39305.457,39183.863,39215.512,39421.863,39466.836,39634.383,-0.454,1.188,-0.446,-197.296,526.459,-261.291,93.333,398.000,1.000
38326.180,38302.934,38717.605,38595.473,38627.930,38833.742,38878.984,39045.906,-0.642,1.126,-0.363,-207.489,564.819,-241.028,93.333,399.000,1.000
37349.141,37326.164,37739.043,37616.914,37650.891,37856.168,37900.871,38067.793,-0.836,1.063,-0.275,-209.930,592.621,-216.522,93.333,400.000,1.000
37349.141,37326.164,37739.043,37616.914,37650.891,37856.168,37900.871,38067.793,-0.836,1.063,-0.275,-209.930,592.621,-216.522,93.333,401.000,0.000
37349.141,37326.164,37739.043,37616.914,37650.891,37856.168,37900.871,38067.793,-0.836,1.063,-0.275,-209.930,592.621,-216.522,93.333,402.000,0.000
37349.141,37326.164,37739.043,37616.914,37650.891,37856.168,37900.871,38067.793,-0.836,1.063,-0.275,-209.930,592.621,-216.522,93.333,403.000,0.000
37349.141,37326.164,37739.043,37616.914,37650.891,37856.168,37900.871,38067.793,-0.836,1.063,-0.275,-209.930,592.621,-216.522,93.333,404.000,0.000
37349.141,37326.164,37739.043,37616.914,37650.891,37856.168,37900.871,38067.793,-0.836,1.063,-0.275,-209.930,592.621,-216.522,93.333,405.000,0.000
37349.141,37326.164,37739.043,37616.914,37650.891,37856.168,37900.871,38067.793,-0.836,1.063,-0.275,-209.930,592.621,-216.522,93.333,406.000,0.000
37349.141,37326.164,37739.043,37616.914,37650.891,37856.168,37900.871,38067.793,-0.836,1.063,-0.275,-209.930,592.621,-216.522,93.333,407.000,0.000
37349.141,37326.164,37739.043,37616.914,37650.891,37856.168,37900.871,38067.793,-0.836,1.063,-0.275,-209.930,592.621,-216.522,93.333,408.000,0.000
37349.141,37326.164,37739.043,37616.914,37650.891,37856.168,37900.871,38067.793,-0.836,1.063,-0.275,-209.930,592.621,-216.522,93.333,409.000,0.000
37349.141,37326.164,37739.043,37616.914,37650.891,37856.168,37900.871,38067.793,-0.836,1.063,-0.275,-209.930,592.621,-216.522,93.333,410.000,0.000
37349.141,37326.164,37739.043,37616.914,37650.891,37856.168,37900.871,38067.793,-0.836,1.063,-0.275,-209.930,592.621,-216.522,93.333,411.000,0.000
37349.141,37326.164,37739.043,37616.914,37650.891,37856.168,37900.871,38067.793,-0.836,1.063,-0.275,-209.930,592.621,-216.522,93.333,412.000,0.000
37349.141,37326.164,37739.043,37616.914,37650.891,37856.168,37900.871,38067.793,-0.836,1.063,-0.275,-209.930,592.621,-216.522,93.333,413.000,0.000
37349.141,37326.164,37739.043,37616.914,37650.891,37856.168,37900.871,38067.793,-0.836,1.063,-0.275,-209.930,592.621,-216.522,93.333,414.000,0.000
37349.141,37326.164,37739.043,37616.914,37650.891,37856.168,37900.871,38067.793,-0.836,1.063,-0.275,-209.930,592.621,-216.522,93.333,415.000,0.000
37349.141,37326.164,37739.043,37616.914,37650.891,37856.168,37900.871,38067.793,-0.836,1.063,-0.275,-209.930,592.621,-216.522,93.333,416.000,0.000
37349.141,37326.164,37739.043,37616.914,37650.891,37856.168,37900.871,38067.793,-0.836,1.063,-0.275,-209.930,592.621,-216.522,93.333,417.000,0.000
37349.141,37326.164,37739.043,37616.914,37650.891,37856.168,37900.871,38067.793,-0.836,1.063,-0.275,-209.930,592.621,-216.522,93.333,418.000,0.000
37349.141,37326.164,37739.043,37616.914,37650.891,37856.168,37900.871,38067.793,-0.836,1.063,-0.275,-209.930,592.621,-216.522,93.333,419.000,0.000
37349.141,37326.164,37739.043,37616.914,37650.891,37856.168,37900.871,38067.793,-0.836,1.063,-0.275,-209.930,592.621,-216.522,93.333,420.000,0.000
37349.141,37326.164,37739.043,37616.914,37650.891,37856.168,37900.871,38067.793,-0.836,1.063,-0.275,-209.930,592.621,-216.522,93.333,421.000,0.000
37349.141,37326.164,37739.043,37616.914,37650.891,37856.168,37900.871,38067.793,-0.836,1.063,-0.275,-209.930,592.621,-216.522,93.333,422.000,0.000
37349.141,37326.164,37739.043,37616.914,37650.891,37856.168,37900.871,38067.793,-0.836,1.063,-0.275,-209.930,592.621,-216.522,93.333,423.000,0.000
37349.141,37326.164,37739.043,37616.914,37650.891,37856.168,37900.871,38067.793,-0.836,1.063,-0.275,-209.930,592.621,-216.522,93.333,424.000,0.000
37349.141,37326.164,37739.043,37616.914,37650.891,37856.168,37900.871,38067.793,-0.836,1.063,-0.275,-209.930,592.621,-216.522,93.333,425.000,0.000
37349.141,37326.164,37739.043,37616.914,37650.891,37856.168,37900.871,38067.793,-0.836,1.063,-0.275,-209.930,592.621,-216.522,93.333,426.000,0.000
37349.141,37326.164,37739.043,37616.914,37650.891,37856.168,37900.871,38067.793,-0.836,1.063,-0.275,-209.930,592.621,-216.522,93.333,427.000,0.000
37349.141,37326.164,37739.043,37616.914,37650.891,37856.168,37900.871,38067.793,-0.836,1.063,-0.275,-209.930,592.621,-216.522,93.333,428.000,0.000
37349.141,37326.164,37739.043,37616.914,37650.891,37856.168,37900.871,38067.793,-0.836,1.063,-0.275,-209.930,592.621,-216.522,93.333,429.000,0.000
37349.141,37326.164,37739.043,37616.914,37650.891,37856.168,37900.871,38067.793,-0.836,1.063,-0.275,-209.930,592.621,-216.522,93.333,430.000,0.000
37349.141,37326.164,37739.043,37616.914,37650.891,37856.168,37900.871,38067.793,-0.836,1.063,-0.275,-209.930,592.621,-216.522,93.333,431.000,0.000
37349.141,37326.164,37739.043,37616.914,37650.891,37856.168,37900.871,38067.793,-0.836,1.063,-0.275,-209.930,592.621,-216.522,93.333,432.000,0.000
37349.141,37326.164,37739.043,37616.914,37650.891,37856.168,37900.871,38067.793,-0.836,1.063,-0.275,-209.930,592.621,-216.522,93.333,433.000,0.000
42486.914,42463.848,42881.734,42760.590,42788.750,42996.980,43041.863,43211.645,0.002,0.982,-0.112,23.193,-4.303,2.411,93.333,434.000,1.000
42706.945,42683.520,43101.676,42980.707,43008.426,43216.922,43262.070,43431.496,-0.009,0.968,-0.119,21.484,-2.777,3.052,93.333,435.000,1.000
42979.992,42956.836,43374.902,43253.758,43281.652,43490.059,43535.391,43705.082,-0.026,0.958,-0.115,21.515,-1.648,2.045,93.333,436.000,1.000
43349.152,43325.730,43744.242,43622.918,43650.547,43859.133,43904.551,44074.961,-0.039,0.965,-0.113,21.576,-1.556,1.129,93.333,437.000,1.000
43819.793,43796.727,44215.238,44094.273,44121.453,44329.949,44375.457,44546.402,-0.045,0.960,-0.116,21.210,-1.160,1.465,93.333,438.000,1.000
44256.367,44233.301,44652.172,44531.738,44558.293,44767.238,44812.031,44983.246,-0.056,0.958,-0.115,21.606,-0.183,1.465,93.333,439.000,1.000
44593.164,44570.098,44989.145,44868.805,44894.910,45104.301,45149.008,45320.488,-0.065,0.965,-0.116,22.491,0.366,0.793,93.333,440.000,1.000
44846.543,44823.297,45242.527,45122.004,45148.203,45357.324,45402.477,45574.137,-0.068,0.979,-0.118,22.522,0.397,0.549,93.333,441.000,1.000
44944.801,44921.734,45340.875,45220.621,45246.461,45455.941,45501.000,45672.305,-0.070,0.984,-0.118,22.339,0.275,0.397,93.333,442.000,1.000
44988.609,44965.273,45384.594,45264.074,45289.910,45499.480,45544.898,45715.848,-0.069,0.982,-0.118,22.522,0.488,0.031,93.333,443.000,1.000
44978.953,44955.887,45374.938,45254.773,45280.523,45490.094,45535.156,45706.457,-0.072,0.985,-0.121,22.858,0.977,-0.244,93.333,444.000,1.000
44901.348,44878.371,45297.691,45177.617,45203.188,45412.758,45457.996,45629.031,-0.083,0.987,-0.118,22.736,1.068,-0.580,93.333,445.000,1.000
44792.539,44769.473,45188.883,45068.809,45094.289,45303.680,45348.832,45520.133,-0.090,0.986,-0.123,22.461,0.732,-0.824,93.333,446.000,1.000
44652.172,44628.566,45047.797,44927.813,44953.473,45162.598,45208.105,45379.141,-0.092,0.987,-0.124,22.491,0.275,-1.495,93.333,447.000,1.000
44568.398,44544.883,44964.113,44843.680,44869.430,45078.820,45124.242,45295.277,-0.088,0.987,-0.125,23.132,0.183,-1.831,93.333,448.000,1.000
44557.578,44534.512,44953.563,44832.773,44858.969,45068.359,45113.512,45284.547,-0.097,0.997,-0.121,23.743,0.549,-1.892,93.333,449.000,1.000
44700.719,44677.652,45096.523,44975.734,45002.379,45211.234,45256.563,45427.777,-0.110,1.003,-0.126,23.437,0.122,-1.465,93.333,450.000,1.000
44907.520,44884.363,45303.500,45182.891,45209.266,45418.301,45463.539,45634.484,-0.110,1.000,-0.126,23.163,-1.221,-2.136,93.333,451.000,1.000
45027.500,45004.258,45423.934,45303.500,45328.980,45538.820,45583.883,45754.918,-0.105,1.000,-0.133,23.895,-2.045,-2.747,93.333,452.000,1.000
45071.043,45048.246,45467.383,45347.313,45372.613,45582.184,45627.512,45798.547,-0.105,1.006,-0.128,24.384,-2.533,-2.655,93.333,453.000,1.000
45132.914,45110.113,45528.984,45409.090,45434.660,45644.320,45689.293,45860.508,-0.107,1.010,-0.127,23.773,-3.723,-2.197,93.333,454.000,1.000
45132.914,45110.113,45528.984,45409.090,45434.660,45644.320,45689.293,45860.508,-0.107,1.010,-0.127,23.773,-3.723,-2.197,93.333,455.000,0.000
45132.914,45110.113,45528.984,45409.090,45434.660,45644.320,45689.293,45860.508,-0.107,1.010,-0.127,23.773,-3.723,-2.197,93.333,456.000,0.000
45132.914,45110.113,45528.984,45409.090,45434.660,45644.320,45689.293,45860.508,-0.107,1.010,-0.127,23.773,-3.723,-2.197,93.333,457.000,0.000
45132.914,45110.113,45528.984,45409.090,45434.660,45644.320,45689.293,45860.508,-0.107,1.010,-0.127,23.773,-3.723,-2.197,93.333,458.000,0.000
45132.914,45110.113,45528.984,45409.090,45434.660,45644.320,45689.293,45860.508,-0.107,1.010,-0.127,23.773,-3.723,-2.197,93.333,459.000,0.000
45132.914,45110.113,45528.984,45409.090,45434.660,45644.320,45689.293,45860.508,-0.107,1.010,-0.127,23.773,-3.723,-2.197,93.333,460.000,0.000
45132.914,45110.113,45528.984,45409.090,45434.660,45644.320,45689.293,45860.508,-0.107,1.010,-0.127,23.773,-3.723,-2.197,93.333,461.000,0.000
45132.914,45110.113,45528.984,45409.090,45434.660,45644.320,45689.293,45860.508,-0.107,1.010,-0.127,23.773,-3.723,-2.197,93.333,462.000,0.000
45132.914,45110.113,45528.984,45409.090,45434.660,45644.320,45689.293,45860.508,-0.107,1.010,-0.127,23.773,-3.723,-2.197,93.333,463.000,0.000
45132.914,45110.113,45528.984,45409.090,45434.660,45644.320,45689.293,45860.508,-0.107,1.010,-0.127,23.773,-3.723,-2.197,93.333,464.000,0.000
45132.914,45110.113,45528.984,45409.090,45434.660,45644.320,45689.293,45860.508,-0.107,1.010,-0.127,23.773,-3.723,-2.197,93.333,465.000,0.000
45132.914,45110.113,45528.984,45409.090,45434.660,45644.320,45689.293,45860.508,-0.107,1.010,-0.127,23.773,-3.723,-2.197,93.333,466.000,0.000
45132.914,45110.113,45528.984,45409.090,45434.660,45644.320,45689.293,45860.508,-0.107,1.010,-0.127,23.773,-3.723,-2.197,93.333,467.000,0.000
45132.914,45110.113,45528.984,45409.090,45434.660,45644.320,45689.293,45860.508,-0.107,1.010,-0.127,23.773,-3.723,-2.197,93.333,468.000,0.000
45132.914,45110.113,45528.984,45409.090,45434.660,45644.320,45689.293,45860.508,-0.107,1.010,-0.127,23.773,-3.723,-2.197,93.333,469.000,0.000
45132.914,45110.113,45528.984,45409.090,45434.660,45644.320,45689.293,45860.508,-0.107,1.010,-0.127,23.773,-3.723,-2.197,93.333,470.000,0.000
45132.914,45110.113,45528.984,45409.090,45434.660,45644.320,45689.293,45860.508,-0.107,1.010,-0.127,23.773,-3.723,-2.197,93.333,471.000,0.000
45132.914,45110.113,45528.984,45409.090,45434.660,45644.320,45689.293,45860.508,-0.107,1.010,-0.127,23.773,-3.723,-2.197,93.333,472.000,0.000
48279.859,48256.613,48677.004,48557.469,48581.699,48792.520,48837.043,49010.852,-0.099,1.000,-0.130,16.144,-3.174,-7.233,93.333,473.000,1.000
48458.941,48435.875,48855.820,48736.820,48760.602,48972.047,49016.035,49189.934,-0.096,0.986,-0.133,15.839,-3.815,-7.233,93.333,474.000,1.000
48592.785,48569.539,48989.660,48870.570,48894.355,49105.801,49149.789,49323.777,-0.092,0.974,-0.136,16.113,-4.272,-7.172,93.333,475.000,1.000
48702.844,48679.332,49099.813,48980.633,49004.414,49215.949,49259.672,49434.016,-0.083,0.964,-0.137,16.693,-4.639,-7.050,93.333,476.000,1.000
48813.977,48791.270,49211.480,49092.570,49116.172,49327.801,49371.699,49545.863,-0.076,0.962,-0.144,17.548,-5.005,-6.897,93.333,477.000,1.000
48918.941,48896.141,49316.266,49197.445,49220.957,49432.941,49476.660,49650.828,-0.068,0.963,-0.149,18.341,-5.280,-6.836,93.333,478.000,1.000
49056.805,49033.738,49453.594,49334.684,49358.555,49570.270,49613.813,49788.602,-0.058,0.969,-0.152,19.226,-5.310,-7.111,93.333,479.000,1.000
49215.059,49192.258,49612.023,49493.379,49517.164,49728.520,49772.152,49947.031,-0.049,0.980,-0.151,19.989,-5.035,-7.416,93.333,480.000,1.000
49385.914,49363.293,49783.238,49664.773,49688.109,49899.914,49943.457,50118.336,-0.046,0.994,-0.153,20.416,-4.486,-7.812,93.333,481.000,1.000
49561.152,49538.531,49958.566,49840.191,49863.078,50075.063,50119.141,50293.930,-0.043,1.007,-0.150,20.325,-3.906,-8.118,93.333,482.000,1.000
49734.152,49711.176,50131.391,50012.656,50035.813,50247.887,50292.230,50466.934,-0.043,1.012,-0.150,19.775,-3.265,-8.301,93.333,483.000,1.000
49892.402,49869.785,50289.996,50171.266,50194.422,50406.406,50450.570,50625.543,-0.044,1.010,-0.153,18.707,-2.686,-8.545,93.333,484.000,1.000
49892.402,49869.785,50289.996,50171.266,50194.422,50406.406,50450.570,50625.543,-0.044,1.010,-0.153,18.707,-2.686,-8.545,93.333,485.000,0.000
49892.402,49869.785,50289.996,50171.266,50194.422,50406.406,50450.570,50625.543,-0.044,1.010,-0.153,18.707,-2.686,-8.545,93.333,486.000,0.000
49892.402,49869.785,50289.996,50171.266,50194.422,50406.406,50450.570,50625.543,-0.044,1.010,-0.153,18.707,-2.686,-8.545,93.333,487.000,0.000
49892.402,49869.785,50289.996,50171.266,50194.422,50406.406,50450.570,50625.543,-0.044,1.010,-0.153,18.707,-2.686,-8.545,93.333,488.000,0.000
49892.402,49869.785,50289.996,50171.266,50194.422,50406.406,50450.570,50625.543,-0.044,1.010,-0.153,18.707,-2.686,-8.545,93.333,489.000,0.000
49892.402,49869.785,50289.996,50171.266,50194.422,50406.406,50450.570,50625.543,-0.044,1.010,-0.153,18.707,-2.686,-8.545,93.333,490.000,0.000
49892.402,49869.785,50289.996,50171.266,50194.422,50406.406,50450.570,50625.543,-0.044,1.010,-0.153,18.707,-2.686,-8.545,93.333,491.000,0.000
49892.402,49869.785,50289.996,50171.266,50194.422,50406.406,50450.570,50625.543,-0.044,1.010,-0.153,18.707,-2.686,-8.545,93.333,492.000,0.000
49892.402,49869.785,50289.996,50171.266,50194.422,50406.406,50450.570,50625.543,-0.044,1.010,-0.153,18.707,-2.686,-8.545,93.333,493.000,0.000
49892.402,49869.785,50289.996,50171.266,50194.422,50406.406,50450.570,50625.543,-0.044,1.010,-0.153,18.707,-2.686,-8.545,93.333,494.000,0.000
49892.402,49869.785,50289.996,50171.266,50194.422,50406.406,50450.570,50625.543,-0.044,1.010,-0.153,18.707,-2.686,-8.545,93.333,495.000,0.000
49892.402,49869.785,50289.996,50171.266,50194.422,50406.406,50450.570,50625.543,-0.044,1.010,-0.153,18.707,-2.686,-8.545,93.333,496.000,0.000
49892.402,49869.785,50289.996,50171.266,50194.422,50406.406,50450.570,50625.543,-0.044,1.010,-0.153,18.707,-2.686,-8.545,93.333,497.000,0.000
49892.402,49869.785,50289.996,50171.266,50194.422,50406.406,50450.570,50625.543,-0.044,1.010,-0.153,18.707,-2.686,-8.545,93.333,498.000,0.000
49892.402,49869.785,50289.996,50171.266,50194.422,50406.406,50450.570,50625.543,-0.044,1.010,-0.153,18.707,-2.686,-8.545,93.333,499.000,0.000
49892.402,49869.785,50289.996,50171.266,50194.422,50406.406,50450.570,50625.543,-0.044,1.010,-0.153,18.707,-2.686,-8.545,93.333,500.000,0.000
49892.402,49869.785,50289.996,50171.266,50194.422,50406.406,50450.570,50625.543,-0.044,1.010,-0.153,18.707,-2.686,-8.545,93.333,501.000,0.000
49892.402,49869.785,50289.996,50171.266,50194.422,50406.406,50450.570,50625.543,-0.044,1.010,-0.153,18.707,-2.686,-8.545,93.333,502.000,0.000
49892.402,49869.785,50289.996,50171.266,50194.422,50406.406,50450.570,50625.543,-0.044,1.010,-0.153,18.707,-2.686,-8.545,93.333,503.000,0.000
49892.402,49869.785,50289.996,50171.266,50194.422,50406.406,50450.570,50625.543,-0.044,1.010,-0.153,18.707,-2.686,-8.545,93.333,504.000,0.000
52611.895,52588.918,53009.309,52891.652,52914.004,53126.969,53170.332,53346.820,-0.060,0.893,-0.203,16.510,0.793,-4.089,93.333,505.000,1.000
52760.668,52738.051,53158.082,53040.512,53063.223,53275.922,53319.105,53496.219,-0.062,0.890,-0.207,16.968,0.946,-3.510,93.333,506.000,1.000
52865.277,52843.191,53262.691,53145.387,53168.008,53380.977,53423.891,53601.094,-0.064,0.888,-0.218,17.639,0.885,-2.930,93.333,507.000,1.000
52985.797,52963.980,53383.836,53265.996,53288.797,53501.766,53544.859,53721.973,-0.068,0.891,-0.222,18.372,0.824,-2.441,93.333,508.000,1.000
53105.066,53082.891,53502.570,53385.176,53407.887,53620.766,53664.129,53841.152,-0.069,0.898,-0.225,19.196,0.702,-2.075,93.333,509.000,1.000
53224.961,53202.785,53622.465,53504.984,53527.871,53740.660,53783.574,53960.691,-0.069,0.912,-0.230,19.867,0.610,-1.862,93.333,510.000,1.000
53340.563,53318.570,53738.156,53620.855,53643.652,53856.441,53899.090,54076.473,-0.069,0.927,-0.233,20.355,0.336,-1.709,93.333,511.000,1.000
53451.340,53429.074,53848.754,53731.988,53754.250,53967.574,54009.684,54187.516,-0.064,0.945,-0.237,20.599,0.214,-1.526,93.333,512.000,1.000
53549.688,53527.422,53947.457,53830.691,53852.777,54066.102,54108.480,54286.398,-0.067,0.963,-0.229,20.355,0.153,-1.465,93.333,513.000,1.000
53657.422,53635.516,54054.836,53937.891,53960.152,54173.836,54215.859,54393.957,-0.074,0.978,-0.220,19.562,0.153,-1.556,93.333,514.000,1.000
53776.602,53754.516,54174.016,54056.715,54079.242,54292.656,54334.770,54513.047,-0.085,0.987,-0.211,18.188,0.153,-1.831,93.333,515.000,1.000
53895.332,53873.160,54292.836,54175.355,54198.156,54411.211,54453.680,54631.688,-0.098,0.981,-0.205,16.479,-0.031,-2.350,93.333,516.000,1.000
54002.621,53980.270,54400.215,54282.914,54305.531,54518.410,54561.414,54739.605,-0.104,0.966,-0.203,14.435,-0.336,-2.899,93.333,517.000,1.000
54128.773,54106.246,54526.188,54408.887,54431.148,54644.297,54687.211,54865.578,-0.103,0.945,-0.211,12.787,-0.916,-3.479,93.333,518.000,1.000
54250.727,54228.820,54648.766,54531.645,54553.727,54767.051,54809.699,54987.707,-0.098,0.920,-0.217,11.414,-1.587,-3.662,93.333,519.000,1.000
54250.727,54228.820,54648.766,54531.645,54553.727,54767.051,54809.699,54987.707,-0.098,0.920,-0.217,11.414,-1.587,-3.662,93.333,520.000,0.000
54250.727,54228.820,54648.766,54531.645,54553.727,54767.051,54809.699,54987.707,-0.098,0.920,-0.217,11.414,-1.587,-3.662,93.333,521.000,0.000
54250.727,54228.820,54648.766,54531.645,54553.727,54767.051,54809.699,54987.707,-0.098,0.920,-0.217,11.414,-1.587,-3.662,93.333,522.000,0.000
54250.727,54228.820,54648.766,54531.645,54553.727,54767.051,54809.699,54987.707,-0.098,0.920,-0.217,11.414,-1.587,-3.662,93.333,523.000,0.000
54250.727,54228.820,54648.766,54531.645,54553.727,54767.051,54809.699,54987.707,-0.098,0.920,-0.217,11.414,-1.587,-3.662,93.333,524.000,0.000
54250.727,54228.820,54648.766,54531.645,54553.727,54767.051,54809.699,54987.707,-0.098,0.920,-0.217,11.414,-1.587,-3.662,93.333,525.000,0.000
54250.727,54228.820,54648.766,54531.645,54553.727,54767.051,54809.699,54987.707,-0.098,0.920,-0.217,11.414,-1.587,-3.662,93.333,526.000,0.000
54250.727,54228.820,54648.766,54531.645,54553.727,54767.051,54809.699,54987.707,-0.098,0.920,-0.217,11.414,-1.587,-3.662,93.333,527.000,0.000
54250.727,54228.820,54648.766,54531.645,54553.727,54767.051,54809.699,54987.707,-0.098,0.920,-0.217,11.414,-1.587,-3.662,93.333,528.000,0.000
54250.727,54228.820,54648.766,54531.645,54553.727,54767.051,54809.699,54987.707,-0.098,0.920,-0.217,11.414,-1.587,-3.662,93.333,529.000,0.000
54250.727,54228.820,54648.766,54531.645,54553.727,54767.051,54809.699,54987.707,-0.098,0.920,-0.217,11.414,-1.587,-3.662,93.333,530.000,0.000
54250.727,54228.820,54648.766,54531.645,54553.727,54767.051,54809.699,54987.707,-0.098,0.920,-0.217,11.414,-1.587,-3.662,93.333,531.000,0.000
54250.727,54228.820,54648.766,54531.645,54553.727,54767.051,54809.699,54987.707,-0.098,0.920,-0.217,11.414,-1.587,-3.662,93.333,532.000,0.000
54250.727,54228.820,54648.766,54531.645,54553.727,54767.051,54809.699,54987.707,-0.098,0.920,-0.217,11.414,-1.587,-3.662,93.333,533.000,0.000
54250.727,54228.820,54648.766,54531.645,54553.727,54767.051,54809.699,54987.707,-0.098,0.920,-0.217,11.414,-1.587,-3.662,93.333,534.000,0.000
54250.727,54228.820,54648.766,54531.645,54553.727,54767.051,54809.699,54987.707,-0.098,0.920,-0.217,11.414,-1.587,-3.662,93.333,535.000,0.000
54250.727,54228.820,54648.766,54531.645,54553.727,54767.051,54809.699,54987.707,-0.098,0.920,-0.217,11.414,-1.587,-3.662,93.333,536.000,0.000
54250.727,54228.820,54648.766,54531.645,54553.727,54767.051,54809.699,54987.707,-0.098,0.920,-0.217,11.414,-1.587,-3.662,93.333,537.000,0.000
54250.727,54228.820,54648.766,54531.645,54553.727,54767.051,54809.699,54987.707,-0.098,0.920,-0.217,11.414,-1.587,-3.662,93.333,538.000,0.000
54250.727,54228.820,54648.766,54531.645,54553.727,54767.051,54809.699,54987.707,-0.098,0.920,-0.217,11.414,-1.587,-3.662,93.333,539.000,0.000
56678.574,56657.563,57076.523,56960.027,56982.020,57196.418,57237.813,57418.059,-0.067,0.977,-0.287,-0.824,2.075,2.045,93.333,540.000,1.000
56766.816,56745.809,57164.945,57048.539,57070.176,57284.395,57326.328,57506.480,-0.072,0.975,-0.292,-1.648,2.258,2.106,93.333,541.000,1.000
56844.332,56823.414,57242.641,57126.234,57148.137,57362.090,57403.844,57584.086,-0.076,0.975,-0.295,-2.441,2.502,2.136,93.333,542.000,1.000
56915.500,56894.578,57313.543,57197.043,57219.219,57433.348,57474.922,57655.254,-0.083,0.979,-0.296,-2.960,2.533,2.075,93.333,543.000,1.000
56985.773,56965.301,57383.727,57267.496,57289.402,57503.977,57545.375,57725.438,-0.085,0.985,-0.292,-3.540,2.441,1.862,93.333,544.000,1.000
57063.203,57042.816,57461.063,57345.102,57367.008,57581.227,57622.891,57802.953,-0.087,0.995,-0.290,-4.364,2.411,1.526,93.333,545.000,1.000
57135.621,57114.699,57533.305,57417.074,57439.156,57653.734,57695.039,57875.465,-0.093,1.003,-0.291,-5.493,2.106,1.160,93.333,546.000,1.000
57210.367,57189.711,57608.316,57492.176,57514.438,57728.656,57769.965,57950.656,-0.098,1.012,-0.292,-6.561,1.892,0.916,93.333,547.000,1.000
57297.449,57277.422,57695.668,57579.258,57601.520,57816.008,57857.316,58037.559,-0.103,1.018,-0.289,-7.843,1.556,0.580,93.333,548.000,1.000
57392.039,57371.926,57790.527,57673.672,57696.293,57910.781,57952.086,58132.508,-0.106,1.026,-0.286,-9.277,1.251,0.305,93.333,549.000,1.000
57491.906,57471.344,57889.949,57773.359,57795.625,58010.469,58051.598,58232.020,-0.110,1.030,-0.282,-10.773,0.610,0.214,93.333,550.000,1.000
57491.906,57471.344,57889.949,57773.359,57795.625,58010.469,58051.598,58232.020,-0.110,1.030,-0.282,-10.773,0.610,0.214,93.333,551.000,0.000
57491.906,57471.344,57889.949,57773.359,57795.625,58010.469,58051.598,58232.020,-0.110,1.030,-0.282,-10.773,0.610,0.214,93.333,552.000,0.000
57491.906,57471.344,57889.949,57773.359,57795.625,58010.469,58051.598,58232.020,-0.110,1.030,-0.282,-10.773,0.610,0.214,93.333,553.000,0.000
57491.906,57471.344,57889.949,57773.359,57795.625,58010.469,58051.598,58232.020,-0.110,1.030,-0.282,-10.773,0.610,0.214,93.333,554.000,0.000
57491.906,57471.344,57889.949,57773.359,57795.625,58010.469,58051.598,58232.020,-0.110,1.030,-0.282,-10.773,0.610,0.214,93.333,555.000,0.000
57491.906,57471.344,57889.949,57773.359,57795.625,58010.469,58051.598,58232.020,-0.110,1.030,-0.282,-10.773,0.610,0.214,93.333,556.000,0.000
57491.906,57471.344,57889.949,57773.359,57795.625,58010.469,58051.598,58232.020,-0.110,1.030,-0.282,-10.773,0.610,0.214,93.333,557.000,0.000
57491.906,57471.344,57889.949,57773.359,57795.625,58010.469,58051.598,58232.020,-0.110,1.030,-0.282,-10.773,0.610,0.214,93.333,558.000,0.000
57491.906,57471.344,57889.949,57773.359,57795.625,58010.469,58051.598,58232.020,-0.110,1.030,-0.282,-10.773,0.610,0.214,93.333,559.000,0.000
57491.906,57471.344,57889.949,57773.359,57795.625,58010.469,58051.598,58232.020,-0.110,1.030,-0.282,-10.773,0.610,0.214,93.333,560.000,0.000
57491.906,57471.344,57889.949,57773.359,57795.625,58010.469,58051.598,58232.020,-0.110,1.030,-0.282,-10.773,0.610,0.214,93.333,561.000,0.000
57491.906,57471.344,57889.949,57773.359,57795.625,58010.469,58051.598,58232.020,-0.110,1.030,-0.282,-10.773,0.610,0.214,93.333,562.000,0.000
57491.906,57471.344,57889.949,57773.359,57795.625,58010.469,58051.598,58232.020,-0.110,1.030,-0.282,-10.773,0.610,0.214,93.333,563.000,0.000
57491.906,57471.344,57889.949,57773.359,57795.625,58010.469,58051.598,58232.020,-0.110,1.030,-0.282,-10.773,0.610,0.214,93.333,564.000,0.000
57491.906,57471.344,57889.949,57773.359,57795.625,58010.469,58051.598,58232.020,-0.110,1.030,-0.282,-10.773,0.610,0.214,93.333,565.000,0.000
57491.906,57471.344,57889.949,57773.359,57795.625,58010.469,58051.598,58232.020,-0.110,1.030,-0.282,-10.773,0.610,0.214,93.333,566.000,0.000
57491.906,57471.344,57889.949,57773.359,57795.625,58010.469,58051.598,58232.020,-0.110,1.030,-0.282,-10.773,0.610,0.214,93.333,567.000,0.000
57491.906,57471.344,57889.949,57773.359,57795.625,58010.469,58051.598,58232.020,-0.110,1.030,-0.282,-10.773,0.610,0.214,93.333,568.000,0.000
57491.906,57471.344,57889.949,57773.359,57795.625,58010.469,58051.598,58232.020,-0.110,1.030,-0.282,-10.773,0.610,0.214,93.333,569.000,0.000
57491.906,57471.344,57889.949,57773.359,57795.625,58010.469,58051.598,58232.020,-0.110,1.030,-0.282,-10.773,0.610,0.214,93.333,570.000,0.000
57491.906,57471.344,57889.949,57773.359,57795.625,58010.469,58051.598,58232.020,-0.110,1.030,-0.282,-10.773,0.610,0.214,93.333,571.000,0.000
57491.906,57471.344,57889.949,57773.359,57795.625,58010.469,58051.598,58232.020,-0.110,1.030,-0.282,-10.773,0.610,0.214,93.333,572.000,0.000
57491.906,57471.344,57889.949,57773.359,57795.625,58010.469,58051.598,58232.020,-0.110,1.030,-0.282,-10.773,0.610,0.214,93.333,573.000,0.000
57491.906,57471.344,57889.949,57773.359,57795.625,58010.469,58051.598,58232.020,-0.110,1.030,-0.282,-10.773,0.610,0.214,93.333,574.000,0.000
57491.906,57471.344,57889.949,57773.359,57795.625,58010.469,58051.598,58232.020,-0.110,1.030,-0.282,-10.773,0.610,0.214,93.333,575.000,0.000
57491.906,57471.344,57889.949,57773.359,57795.625,58010.469,58051.598,58232.020,-0.110,1.030,-0.282,-10.773,0.610,0.214,93.333,576.000,0.000
57491.906,57471.344,57889.949,57773.359,57795.625,58010.469,58051.598,58232.020,-0.110,1.030,-0.282,-10.773,0.610,0.214,93.333,577.000,0.000
57491.906,57471.344,57889.949,57773.359,57795.625,58010.469,58051.598,58232.020,-0.110,1.030,-0.282,-10.773,0.610,0.214,93.333,578.000,0.000
57491.906,57471.344,57889.949,57773.359,57795.625,58010.469,58051.598,58232.020,-0.110,1.030,-0.282,-10.773,0.610,0.214,93.333,579.000,0.000
57491.906,57471.344,57889.949,57773.359,57795.625,58010.469,58051.598,58232.020,-0.110,1.030,-0.282,-10.773,0.610,0.214,93.333,580.000,0.000
57491.906,57471.344,57889.949,57773.359,57795.625,58010.469,58051.598,58232.020,-0.110,1.030,-0.282,-10.773,0.610,0.214,93.333,581.000,0.000
57491.906,57471.344,57889.949,57773.359,57795.625,58010.469,58051.598,58232.020,-0.110,1.030,-0.282,-10.773,0.610,0.214,93.333,582.000,0.000
57491.906,57471.344,57889.949,57773.359,57795.625,58010.469,58051.598,58232.020,-0.110,1.030,-0.282,-10.773,0.610,0.214,93.333,583.000,0.000
57491.906,57471.344,57889.949,57773.359,57795.625,58010.469,58051.598,58232.020,-0.110,1.030,-0.282,-10.773,0.610,0.214,93.333,584.000,0.000
57491.906,57471.344,57889.949,57773.359,57795.625,58010.469,58051.598,58232.020,-0.110,1.030,-0.282,-10.773,0.610,0.214,93.333,585.000,0.000
57491.906,57471.344,57889.949,57773.359,57795.625,58010.469,58051.598,58232.020,-0.110,1.030,-0.282,-10.773,0.610,0.214,93.333,586.000,0.000
57491.906,57471.344,57889.949,57773.359,57795.625,58010.469,58051.598,58232.020,-0.110,1.030,-0.282,-10.773,0.610,0.214,93.333,587.000,0.000
57491.906,57471.344,57889.949,57773.359,57795.625,58010.469,58051.598,58232.020,-0.110,1.030,-0.282,-10.773,0.610,0.214,93.333,588.000,0.000
57491.906,57471.344,57889.949,57773.359,57795.625,58010.469,58051.598,58232.020,-0.110,1.030,-0.282,-10.773,0.610,0.214,93.333,589.000,0.000
64257.512,64241.688,64658.145,64542.363,64565.340,64780.098,64819.258,65004.777,-0.097,0.914,-0.156,-11.444,3.052,-4.547,93.333,590.000,1.000
64323.227,64307.582,64724.219,64608.078,64630.875,64845.902,64885.063,65070.582,-0.095,0.915,-0.156,-10.986,2.502,-4.028,93.333,591.000,1.000
64384.563,64369.004,64785.551,64670.035,64692.391,64906.965,64946.395,65131.734,-0.096,0.918,-0.160,-10.620,1.862,-3.540,93.333,592.000,1.000
64457.426,64441.961,64858.059,64742.813,64764.898,64979.563,65018.902,65204.332,-0.096,0.921,-0.158,-10.284,1.221,-3.143,93.333,593.000,1.000
64551.484,64535.660,64952.027,64836.336,64858.328,65073.441,65112.691,65298.391,-0.099,0.924,-0.157,-10.254,0.763,-2.686,93.333,594.000,1.000
64653.676,64637.941,65054.219,64938.438,64961.234,65175.992,65215.063,65401.027,-0.099,0.924,-0.163,-10.315,0.183,-2.441,93.333,595.000,1.000
64750.773,64735.484,65151.582,65035.801,65058.867,65273.535,65312.785,65498.305,-0.098,0.925,-0.168,-10.345,-0.366,-2.350,93.333,596.000,1.000
64837.766,64822.566,65238.754,65122.793,65145.684,65360.348,65399.508,65585.297,-0.097,0.931,-0.166,-10.223,-0.885,-2.289,93.333,597.000,1.000
64925.383,64909.648,65326.195,65210.234,65233.121,65447.609,65486.680,65672.828,-0.096,0.940,-0.164,-9.979,-1.251,-2.441,93.333,598.000,1.000
65015.328,65000.039,65416.227,65300.445,65323.332,65537.914,65577.164,65762.945,-0.097,0.947,-0.163,-10.162,-1.678,-2.716,93.333,599.000,1.000
65102.500,65087.301,65503.133,65387.438,65410.594,65625.086,65664.422,65849.852,-0.096,0.948,-0.168,-10.498,-2.258,-2.991,93.333,600.000,1.000
65178.852,65163.207,65579.219,65463.523,65486.770,65701.078,65740.328,65926.203,-0.094,0.948,-0.168,-10.742,-2.625,-3.357,93.333,601.000,1.000
65262.539,65247.516,65663.438,65547.391,65570.813,65785.117,65824.195,66010.336,-0.092,0.951,-0.169,-10.895,-2.777,-3.845,93.333,602.000,1.000
65350.602,65336.031,65751.953,65636.078,65659.055,65873.633,65912.617,66098.758,-0.090,0.954,-0.167,-10.956,-2.930,-4.272,93.333,603.000,1.000
65433.930,65419.000,65835.367,65719.320,65742.563,65957.227,65995.766,66181.906,-0.086,0.960,-0.169,-10.925,-3.052,-4.608,93.333,604.000,1.000
65509.656,65494.996,65911.094,65795.227,65818.289,66033.227,66071.852,66257.906,-0.083,0.966,-0.171,-11.078,-3.052,-4.944,93.333,605.000,1.000
65596.922,65582.164,65998.180,65882.219,65905.281,66120.305,66158.844,66345.438,-0.084,0.970,-0.168,-11.353,-2.991,-5.219,93.333,606.000,1.000
65690.352,65675.594,66091.789,65976.008,65999.164,66213.828,66252.453,66439.047,-0.082,0.972,-0.169,-11.475,-2.899,-5.127,93.333,607.000,1.000
65787.711,65773.055,66189.328,66073.727,66096.258,66311.461,66350.086,66536.141,-0.080,0.973,-0.164,-11.536,-2.716,-4.974,93.333,608.000,1.000
65787.711,65773.055,66189.328,66073.727,66096.258,66311.461,66350.086,66536.141,-0.080,0.973,-0.164,-11.536,-2.716,-4.974,93.333,609.000,0.000
65787.711,65773.055,66189.328,66073.727,66096.258,66311.461,66350.086,66536.141,-0.080,0.973,-0.164,-11.536,-2.716,-4.974,93.333,610.000,0.000
65787.711,65773.055,66189.328,66073.727,66096.258,66311.461,66350.086,66536.141,-0.080,0.973,-0.164,-11.536,-2.716,-4.974,93.333,611.000,0.000
65787.711,65773.055,66189.328,66073.727,66096.258,66311.461,66350.086,66536.141,-0.080,0.973,-0.164,-11.536,-2.716,-4.974,93.333,612.000,0.000
65787.711,65773.055,66189.328,66073.727,66096.258,66311.461,66350.086,66536.141,-0.080,0.973,-0.164,-11.536,-2.716,-4.974,93.333,613.000,0.000
65787.711,65773.055,66189.328,66073.727,66096.258,66311.461,66350.086,66536.141,-0.080,0.973,-0.164,-11.536,-2.716,-4.974,93.333,614.000,0.000
65787.711,65773.055,66189.328,66073.727,66096.258,66311.461,66350.086,66536.141,-0.080,0.973,-0.164,-11.536,-2.716,-4.974,93.333,615.000,0.000
65787.711,65773.055,66189.328,66073.727,66096.258,66311.461,66350.086,66536.141,-0.080,0.973,-0.164,-11.536,-2.716,-4.974,93.333,616.000,0.000
65787.711,65773.055,66189.328,66073.727,66096.258,66311.461,66350.086,66536.141,-0.080,0.973,-0.164,-11.536,-2.716,-4.974,93.333,617.000,0.000
65787.711,65773.055,66189.328,66073.727,66096.258,66311.461,66350.086,66536.141,-0.080,0.973,-0.164,-11.536,-2.716,-4.974,93.333,618.000,0.000
65787.711,65773.055,66189.328,66073.727,66096.258,66311.461,66350.086,66536.141,-0.080,0.973,-0.164,-11.536,-2.716,-4.974,93.333,619.000,0.000
65787.711,65773.055,66189.328,66073.727,66096.258,66311.461,66350.086,66536.141,-0.080,0.973,-0.164,-11.536,-2.716,-4.974,93.333,620.000,0.000
65787.711,65773.055,66189.328,66073.727,66096.258,66311.461,66350.086,66536.141,-0.080,0.973,-0.164,-11.536,-2.716,-4.974,93.333,621.000,0.000
65787.711,65773.055,66189.328,66073.727,66096.258,66311.461,66350.086,66536.141,-0.080,0.973,-0.164,-11.536,-2.716,-4.974,93.333,622.000,0.000
65787.711,65773.055,66189.328,66073.727,66096.258,66311.461,66350.086,66536.141,-0.080,0.973,-0.164,-11.536,-2.716,-4.974,93.333,623.000,0.000
65787.711,65773.055,66189.328,66073.727,66096.258,66311.461,66350.086,66536.141,-0.080,0.973,-0.164,-11.536,-2.716,-4.974,93.333,624.000,0.000
65787.711,65773.055,66189.328,66073.727,66096.258,66311.461,66350.086,66536.141,-0.080,0.973,-0.164,-11.536,-2.716,-4.974,93.333,625.000,0.000
65787.711,65773.055,66189.328,66073.727,66096.258,66311.461,66350.086,66536.141,-0.080,0.973,-0.164,-11.536,-2.716,-4.974,93.333,626.000,0.000
65787.711,65773.055,66189.328,66073.727,66096.258,66311.461,66350.086,66536.141,-0.080,0.973,-0.164,-11.536,-2.716,-4.974,93.333,627.000,0.000
65787.711,65773.055,66189.328,66073.727,66096.258,66311.461,66350.086,66536.141,-0.080,0.973,-0.164,-11.536,-2.716,-4.974,93.333,628.000,0.000
65787.711,65773.055,66189.328,66073.727,66096.258,66311.461,66350.086,66536.141,-0.080,0.973,-0.164,-11.536,-2.716,-4.974,93.333,629.000,0.000
67686.625,67673.039,68088.422,67972.906,67996.063,68210.734,68249.359,68436.930,-0.085,0.974,-0.151,-8.209,5.890,-3.754,93.333,630.000,1.000
67762.625,67749.391,68164.773,68049.172,68072.063,68286.641,68325.172,68512.836,-0.094,0.977,-0.151,-8.179,5.981,-3.723,93.333,631.000,1.000
67842.734,67829.594,68244.883,68129.195,68152.352,68366.930,68405.375,68592.945,-0.100,0.977,-0.155,-8.118,5.920,-3.601,93.333,632.000,1.000
67928.563,67915.422,68330.805,68215.203,68238.445,68453.023,68491.469,68679.492,-0.103,0.979,-0.156,-7.904,5.768,-3.326,93.333,633.000,1.000
68008.938,67996.063,68411.539,68295.758,68318.375,68533.398,68571.844,68759.867,-0.108,0.981,-0.157,-7.599,5.493,-3.174,93.333,634.000,1.000
68093.609,68080.820,68496.211,68380.156,68403.047,68617.805,68656.602,68844.539,-0.112,0.988,-0.155,-7.416,5.188,-2.716,93.333,635.000,1.000
68187.484,68174.523,68590.086,68474.211,68497.375,68711.766,68750.484,68938.414,-0.115,0.992,-0.153,-7.202,4.913,-2.319,93.333,636.000,1.000
68284.406,68271.711,68686.914,68571.219,68594.375,68808.953,68847.492,69035.688,-0.119,1.000,-0.152,-6.989,4.547,-1.862,93.333,637.000,1.000
68373.992,68360.938,68776.414,68660.539,68683.695,68898.180,68937.078,69124.922,-0.124,1.004,-0.150,-7.019,4.059,-1.190,93.333,638.000,1.000
68461.344,68448.375,68864.211,68747.797,68771.047,68986.250,69024.422,69212.266,-0.127,1.005,-0.149,-7.019,3.418,-0.641,93.333,639.000,1.000
68555.664,68543.234,68958.352,68842.305,68865.641,69080.391,69118.391,69306.594,-0.132,1.005,-0.146,-7.019,2.747,-0.092,93.333,640.000,1.000
68652.852,68640.516,69055.359,68939.578,68963.000,69177.492,69216.117,69404.141,-0.129,1.002,-0.142,-7.050,1.984,0.488,93.333,641.000,1.000
68746.641,68734.656,69149.414,69033.906,69056.883,69271.547,69309.898,69498.195,-0.128,1.000,-0.140,-7.050,1.099,1.251,93.333,642.000,1.000
68838.641,68826.750,69241.953,69125.898,69148.969,69363.906,69401.813,69590.195,-0.124,0.996,-0.136,-6.927,0.397,1.801,93.333,643.000,1.000
68838.641,68826.750,69241.953,69125.898,69148.969,69363.906,69401.813,69590.195,-0.124,0.996,-0.136,-6.927,0.397,1.801,93.333,644.000,0.000
68838.641,68826.750,69241.953,69125.898,69148.969,69363.906,69401.813,69590.195,-0.124,0.996,-0.136,-6.927,0.397,1.801,93.333,645.000,0.000
68838.641,68826.750,69241.953,69125.898,69148.969,69363.906,69401.813,69590.195,-0.124,0.996,-0.136,-6.927,0.397,1.801,93.333,646.000,0.000
68838.641,68826.750,69241.953,69125.898,69148.969,69363.906,69401.813,69590.195,-0.124,0.996,-0.136,-6.927,0.397,1.801,93.333,647.000,0.000
68838.641,68826.750,69241.953,69125.898,69148.969,69363.906,69401.813,69590.195,-0.124,0.996,-0.136,-6.927,0.397,1.801,93.333,648.000,0.000
68838.641,68826.750,69241.953,69125.898,69148.969,69363.906,69401.813,69590.195,-0.124,0.996,-0.136,-6.927,0.397,1.801,93.333,649.000,0.000
68838.641,68826.750,69241.953,69125.898,69148.969,69363.906,69401.813,69590.195,-0.124,0.996,-0.136,-6.927,0.397,1.801,93.333,650.000,0.000
68838.641,68826.750,69241.953,69125.898,69148.969,69363.906,69401.813,69590.195,-0.124,0.996,-0.136,-6.927,0.397,1.801,93.333,651.000,0.000
68838.641,68826.750,69241.953,69125.898,69148.969,69363.906,69401.813,69590.195,-0.124,0.996,-0.136,-6.927,0.397,1.801,93.333,652.000,0.000
68838.641,68826.750,69241.953,69125.898,69148.969,69363.906,69401.813,69590.195,-0.124,0.996,-0.136,-6.927,0.397,1.801,93.333,653.000,0.000
68838.641,68826.750,69241.953,69125.898,69148.969,69363.906,69401.813,69590.195,-0.124,0.996,-0.136,-6.927,0.397,1.801,93.333,654.000,0.000
68838.641,68826.750,69241.953,69125.898,69148.969,69363.906,69401.813,69590.195,-0.124,0.996,-0.136,-6.927,0.397,1.801,93.333,655.000,0.000
68838.641,68826.750,69241.953,69125.898,69148.969,69363.906,69401.813,69590.195,-0.124,0.996,-0.136,-6.927,0.397,1.801,93.333,656.000,0.000
68838.641,68826.750,69241.953,69125.898,69148.969,69363.906,69401.813,69590.195,-0.124,0.996,-0.136,-6.927,0.397,1.801,93.333,657.000,0.000
70231.953,70221.227,70635.180,70520.023,70543.359,70757.852,70795.664,70984.945,-0.069,0.981,-0.127,-2.869,-3.143,0.458,93.333,658.000,1.000
70320.469,70309.922,70724.055,70608.359,70631.875,70846.180,70883.734,71073.547,-0.070,0.980,-0.129,-2.838,-2.899,0.336,93.333,659.000,1.000
70407.641,70396.641,70811.047,70695.172,70718.508,70933.172,70970.461,71160.445,-0.068,0.980,-0.127,-2.808,-2.716,0.275,93.333,660.000,1.000
70498.391,70487.031,70901.523,70785.742,70808.813,71023.477,71061.383,71251.281,-0.068,0.978,-0.129,-2.747,-2.686,0.244,93.333,661.000,1.000
70593.070,70581.805,70996.477,70880.695,70904.031,71118.156,71156.516,71346.500,-0.067,0.978,-0.129,-2.777,-2.502,0.305,93.333,662.000,1.000
70679.172,70668.086,71082.844,70966.703,70990.039,71204.438,71242.258,71432.422,-0.069,0.977,-0.128,-2.869,-2.472,0.183,93.333,663.000,1.000
70766.789,70756.063,71170.461,71054.320,71077.836,71292.234,71330.055,71520.133,-0.069,0.973,-0.130,-2.899,-2.289,0.183,93.333,664.000,1.000
70861.383,70850.656,71265.234,71149.094,71172.695,71387.188,71424.820,71614.813,-0.070,0.974,-0.132,-2.869,-2.136,0.000,93.333,665.000,1.000
70958.922,70948.375,71362.953,71246.992,71270.422,71484.992,71522.547,71712.539,-0.074,0.975,-0.137,-2.869,-1.923,-0.092,93.333,666.000,1.000
71049.852,71039.211,71453.883,71338.008,71361.438,71576.102,71613.477,71803.734,-0.077,0.977,-0.139,-2.869,-1.770,-0.214,93.333,667.000,1.000
71049.852,71039.211,71453.883,71338.008,71361.438,71576.102,71613.477,71803.734,-0.077,0.977,-0.139,-2.869,-1.770,-0.214,93.333,668.000,0.000
71049.852,71039.211,71453.883,71338.008,71361.438,71576.102,71613.477,71803.734,-0.077,0.977,-0.139,-2.869,-1.770,-0.214,93.333,669.000,0.000
71049.852,71039.211,71453.883,71338.008,71361.438,71576.102,71613.477,71803.734,-0.077,0.977,-0.139,-2.869,-1.770,-0.214,93.333,670.000,0.000
71049.852,71039.211,71453.883,71338.008,71361.438,71576.102,71613.477,71803.734,-0.077,0.977,-0.139,-2.869,-1.770,-0.214,93.333,671.000,0.000
71049.852,71039.211,71453.883,71338.008,71361.438,71576.102,71613.477,71803.734,-0.077,0.977,-0.139,-2.869,-1.770,-0.214,93.333,672.000,0.000
71049.852,71039.211,71453.883,71338.008,71361.438,71576.102,71613.477,71803.734,-0.077,0.977,-0.139,-2.869,-1.770,-0.214,93.333,673.000,0.000
71049.852,71039.211,71453.883,71338.008,71361.438,71576.102,71613.477,71803.734,-0.077,0.977,-0.139,-2.869,-1.770,-0.214,93.333,674.000,0.000
71049.852,71039.211,71453.883,71338.008,71361.438,71576.102,71613.477,71803.734,-0.077,0.977,-0.139,-2.869,-1.770,-0.214,93.333,675.000,0.000
71049.852,71039.211,71453.883,71338.008,71361.438,71576.102,71613.477,71803.734,-0.077,0.977,-0.139,-2.869,-1.770,-0.214,93.333,676.000,0.000
71049.852,71039.211,71453.883,71338.008,71361.438,71576.102,71613.477,71803.734,-0.077,0.977,-0.139,-2.869,-1.770,-0.214,93.333,677.000,0.000
71049.852,71039.211,71453.883,71338.008,71361.438,71576.102,71613.477,71803.734,-0.077,0.977,-0.139,-2.869,-1.770,-0.214,93.333,678.000,0.000
71049.852,71039.211,71453.883,71338.008,71361.438,71576.102,71613.477,71803.734,-0.077,0.977,-0.139,-2.869,-1.770,-0.214,93.333,679.000,0.000
71049.852,71039.211,71453.883,71338.008,71361.438,71576.102,71613.477,71803.734,-0.077,0.977,-0.139,-2.869,-1.770,-0.214,93.333,680.000,0.000
71049.852,71039.211,71453.883,71338.008,71361.438,71576.102,71613.477,71803.734,-0.077,0.977,-0.139,-2.869,-1.770,-0.214,93.333,681.000,0.000
71049.852,71039.211,71453.883,71338.008,71361.438,71576.102,71613.477,71803.734,-0.077,0.977,-0.139,-2.869,-1.770,-0.214,93.333,682.000,0.000
71049.852,71039.211,71453.883,71338.008,71361.438,71576.102,71613.477,71803.734,-0.077,0.977,-0.139,-2.869,-1.770,-0.214,93.333,683.000,0.000
71049.852,71039.211,71453.883,71338.008,71361.438,71576.102,71613.477,71803.734,-0.077,0.977,-0.139,-2.869,-1.770,-0.214,93.333,684.000,0.000
71049.852,71039.211,71453.883,71338.008,71361.438,71576.102,71613.477,71803.734,-0.077,0.977,-0.139,-2.869,-1.770,-0.214,93.333,685.000,0.000
71049.852,71039.211,71453.883,71338.008,71361.438,71576.102,71613.477,71803.734,-0.077,0.977,-0.139,-2.869,-1.770,-0.214,93.333,686.000,0.000
71049.852,71039.211,71453.883,71338.008,71361.438,71576.102,71613.477,71803.734,-0.077,0.977,-0.139,-2.869,-1.770,-0.214,93.333,687.000,0.000
71049.852,71039.211,71453.883,71338.008,71361.438,71576.102,71613.477,71803.734,-0.077,0.977,-0.139,-2.869,-1.770,-0.214,93.333,688.000,0.000
71049.852,71039.211,71453.883,71338.008,71361.438,71576.102,71613.477,71803.734,-0.077,0.977,-0.139,-2.869,-1.770,-0.214,93.333,689.000,0.000
71049.852,71039.211,71453.883,71338.008,71361.438,71576.102,71613.477,71803.734,-0.077,0.977,-0.139,-2.869,-1.770,-0.214,93.333,690.000,0.000
71049.852,71039.211,71453.883,71338.008,71361.438,71576.102,71613.477,71803.734,-0.077,0.977,-0.139,-2.869,-1.770,-0.214,93.333,691.000,0.000
71049.852,71039.211,71453.883,71338.008,71361.438,71576.102,71613.477,71803.734,-0.077,0.977,-0.139,-2.869,-1.770,-0.214,93.333,692.000,0.000
71049.852,71039.211,71453.883,71338.008,71361.438,71576.102,71613.477,71803.734,-0.077,0.977,-0.139,-2.869,-1.770,-0.214,93.333,693.000,0.000
71049.852,71039.211,71453.883,71338.008,71361.438,71576.102,71613.477,71803.734,-0.077,0.977,-0.139,-2.869,-1.770,-0.214,93.333,694.000,0.000
71049.852,71039.211,71453.883,71338.008,71361.438,71576.102,71613.477,71803.734,-0.077,0.977,-0.139,-2.869,-1.770,-0.214,93.333,695.000,0.000
71049.852,71039.211,71453.883,71338.008,71361.438,71576.102,71613.477,71803.734,-0.077,0.977,-0.139,-2.869,-1.770,-0.214,93.333,696.000,0.000
71049.852,71039.211,71453.883,71338.008,71361.438,71576.102,71613.477,71803.734,-0.077,0.977,-0.139,-2.869,-1.770,-0.214,93.333,697.000,0.000
73895.141,73887.000,74300.422,74184.727,74207.438,74422.547,74459.922,74651.250,-0.092,0.999,-0.129,-2.594,0.336,-0.610,93.333,698.000,1.000
73978.820,73970.773,74383.570,74268.055,74291.305,74506.234,74543.789,74734.672,-0.092,1.004,-0.129,-2.808,0.122,-0.610,93.333,699.000,1.000
74061.438,74053.391,74466.273,74350.664,74373.734,74589.023,74626.039,74817.461,-0.091,1.007,-0.129,-3.113,0.183,-0.580,93.333,700.000,1.000
74142.352,74134.570,74547.813,74431.852,74454.734,74669.852,74707.219,74898.734,-0.088,1.008,-0.126,-3.357,-0.031,-0.580,93.333,701.000,1.000
74230.953,74223.352,74636.594,74520.539,74543.789,74758.633,74796.180,74987.516,-0.083,1.007,-0.124,-3.784,0.031,-0.488,93.333,702.000,1.000
74317.047,74309.180,74722.336,74606.641,74629.703,74844.461,74881.836,75073.609,-0.076,1.002,-0.127,-4.211,0.214,-0.458,93.333,703.000,1.000
74401.453,74393.586,74806.461,74690.859,74713.656,74928.953,74966.055,75157.922,-0.069,0.992,-0.128,-4.486,0.427,-0.488,93.333,704.000,1.000
74477.266,74469.578,74882.547,74767.039,74789.563,75004.945,75042.320,75233.648,-0.067,0.986,-0.126,-4.395,0.854,-0.458,93.333,705.000,1.000
74559.430,74551.922,74965.344,74849.203,74872.086,75087.469,75124.578,75316.531,-0.066,0.982,-0.125,-4.120,1.160,-0.580,93.333,706.000,1.000
74646.070,74638.734,75051.531,74935.656,74958.273,75173.836,75211.031,75402.898,-0.067,0.980,-0.127,-3.937,1.617,-0.580,93.333,707.000,1.000
74733.328,74726.359,75139.055,75023.188,75045.719,75261.367,75298.563,75490.336,-0.066,0.980,-0.125,-3.723,2.014,-0.549,93.333,708.000,1.000
74808.875,74801.727,75214.430,75099.008,75121.000,75336.555,75374.109,75566.063,-0.066,0.981,-0.126,-3.479,2.472,-0.610,93.333,709.000,1.000
74882.641,74875.664,75288.367,75173.125,75195.203,75410.852,75448.141,75639.914,-0.066,0.983,-0.126,-3.235,2.899,-0.610,93.333,710.000,1.000
74962.836,74955.688,75368.656,75253.055,75275.586,75491.055,75527.977,75720.203,-0.067,0.984,-0.122,-3.113,3.235,-0.488,93.333,711.000,1.000
74962.836,74955.688,75368.656,75253.055,75275.586,75491.055,75527.977,75720.203,-0.067,0.984,-0.122,-3.113,3.235,-0.488,93.333,712.000,0.000
74962.836,74955.688,75368.656,75253.055,75275.586,75491.055,75527.977,75720.203,-0.067,0.984,-0.122,-3.113,3.235,-0.488,93.333,713.000,0.000
74962.836,74955.688,75368.656,75253.055,75275.586,75491.055,75527.977,75720.203,-0.067,0.984,-0.122,-3.113,3.235,-0.488,93.333,714.000,0.000
74962.836,74955.688,75368.656,75253.055,75275.586,75491.055,75527.977,75720.203,-0.067,0.984,-0.122,-3.113,3.235,-0.488,93.333,715.000,0.000
74962.836,74955.688,75368.656,75253.055,75275.586,75491.055,75527.977,75720.203,-0.067,0.984,-0.122,-3.113,3.235,-0.488,93.333,716.000,0.000
74962.836,74955.688,75368.656,75253.055,75275.586,75491.055,75527.977,75720.203,-0.067,0.984,-0.122,-3.113,3.235,-0.488,93.333,717.000,0.000
74962.836,74955.688,75368.656,75253.055,75275.586,75491.055,75527.977,75720.203,-0.067,0.984,-0.122,-3.113,3.235,-0.488,93.333,718.000,0.000
74962.836,74955.688,75368.656,75253.055,75275.586,75491.055,75527.977,75720.203,-0.067,0.984,-0.122,-3.113,3.235,-0.488,93.333,719.000,0.000
74962.836,74955.688,75368.656,75253.055,75275.586,75491.055,75527.977,75720.203,-0.067,0.984,-0.122,-3.113,3.235,-0.488,93.333,720.000,0.000
74962.836,74955.688,75368.656,75253.055,75275.586,75491.055,75527.977,75720.203,-0.067,0.984,-0.122,-3.113,3.235,-0.488,93.333,721.000,0.000
74962.836,74955.688,75368.656,75253.055,75275.586,75491.055,75527.977,75720.203,-0.067,0.984,-0.122,-3.113,3.235,-0.488,93.333,722.000,0.000
74962.836,74955.688,75368.656,75253.055,75275.586,75491.055,75527.977,75720.203,-0.067,0.984,-0.122,-3.113,3.235,-0.488,93.333,723.000,0.000
74962.836,74955.688,75368.656,75253.055,75275.586,75491.055,75527.977,75720.203,-0.067,0.984,-0.122,-3.113,3.235,-0.488,93.333,724.000,0.000
74962.836,74955.688,75368.656,75253.055,75275.586,75491.055,75527.977,75720.203,-0.067,0.984,-0.122,-3.113,3.235,-0.488,93.333,725.000,0.000
74962.836,74955.688,75368.656,75253.055,75275.586,75491.055,75527.977,75720.203,-0.067,0.984,-0.122,-3.113,3.235,-0.488,93.333,726.000,0.000
74962.836,74955.688,75368.656,75253.055,75275.586,75491.055,75527.977,75720.203,-0.067,0.984,-0.122,-3.113,3.235,-0.488,93.333,727.000,0.000
74962.836,74955.688,75368.656,75253.055,75275.586,75491.055,75527.977,75720.203,-0.067,0.984,-0.122,-3.113,3.235,-0.488,93.333,728.000,0.000
74962.836,74955.688,75368.656,75253.055,75275.586,75491.055,75527.977,75720.203,-0.067,0.984,-0.122,-3.113,3.235,-0.488,93.333,729.000,0.000
74962.836,74955.688,75368.656,75253.055,75275.586,75491.055,75527.977,75720.203,-0.067,0.984,-0.122,-3.113,3.235,-0.488,93.333,730.000,0.000
74962.836,74955.688,75368.656,75253.055,75275.586,75491.055,75527.977,75720.203,-0.067,0.984,-0.122,-3.113,3.235,-0.488,93.333,731.000,0.000
74962.836,74955.688,75368.656,75253.055,75275.586,75491.055,75527.977,75720.203,-0.067,0.984,-0.122,-3.113,3.235,-0.488,93.333,732.000,0.000
76618.211,76612.750,77024.477,76909.227,76931.219,77147.141,77184.063,77377.008,-0.036,0.964,-0.128,-0.519,6.897,-0.824,93.333,733.000,1.000
76685.352,76679.984,77091.883,76976.195,76998.453,77214.016,77251.211,77444.328,-0.041,0.965,-0.134,-0.153,7.996,-1.434,93.333,734.000,1.000
76751.961,76746.508,77158.406,77042.977,77064.883,77280.805,77317.641,77510.844,-0.043,0.968,-0.136,0.122,9.033,-1.923,93.333,735.000,1.000
76816.688,76811.328,77223.672,77107.711,77129.703,77346.156,77382.641,77576.117,-0.048,0.973,-0.136,0.305,10.162,-2.289,93.333,736.000,1.000
76883.656,76878.289,77290.367,77174.586,77196.758,77412.945,77449.156,77642.719,-0.052,0.978,-0.135,0.366,11.169,-2.533,93.333,737.000,1.000
76940.430,76934.797,77347.055,77231.359,77253.625,77469.633,77505.844,77699.227,-0.054,0.983,-0.128,0.305,11.993,-2.625,93.333,738.000,1.000
76994.609,76989.156,77401.234,77285.719,77307.891,77523.539,77560.023,77753.586,-0.055,0.985,-0.125,-0.153,12.726,-2.472,93.333,739.000,1.000
77052.992,77047.539,77459.352,77343.563,77366.094,77581.750,77618.047,77811.969,-0.057,0.984,-0.129,-0.824,13.428,-1.984,93.333,740.000,1.000
77116.023,77110.484,77522.109,77406.422,77428.859,77644.508,77681.164,77875.094,-0.056,0.983,-0.130,-1.373,14.160,-1.465,93.333,741.000,1.000
77177.094,77171.727,77583.445,77467.750,77490.281,77705.844,77742.586,77936.242,-0.049,0.982,-0.129,-1.831,14.923,-0.977,93.333,742.000,1.000
77231.273,77226.086,77637.805,77522.203,77544.641,77760.203,77796.945,77990.516,-0.042,0.980,-0.128,-2.563,15.747,-0.366,93.333,743.000,1.000
77296.625,77291.531,77703.164,77587.469,77609.820,77825.469,77862.305,78056.047,-0.031,0.972,-0.127,-3.204,16.602,0.549,93.333,744.000,1.000
77367.523,77362.344,77774.242,77658.727,77680.898,77896.547,77933.383,78127.219,-0.021,0.959,-0.131,-3.693,17.548,1.221,93.333,745.000,1.000
77436.727,77431.453,77843.797,77728.109,77750.188,77966.289,78002.766,78196.328,-0.010,0.945,-0.134,-3.967,18.616,1.831,93.333,746.000,1.000
77499.133,77494.578,77906.648,77790.781,77812.773,78029.047,78065.438,78259.453,-0.006,0.935,-0.140,-3.784,19.958,2.289,93.333,747.000,1.000
77566.906,77562.438,77974.422,77858.547,77880.813,78097.086,78133.031,78327.219,0.000,0.930,-0.140,-3.510,21.301,2.441,93.333,748.000,1.000
77636.914,77631.906,78044.070,77928.375,77950.727,78166.648,78203.305,78396.867,0.006,0.929,-0.144,-3.235,22.736,2.258,93.333,749.000,1.000
77704.859,77699.945,78111.844,77996.234,78018.234,78234.148,78271.164,78464.555,0.011,0.924,-0.144,-2.930,24.109,2.014,93.333,750.000,1.000
77764.938,77760.648,78172.641,78056.406,78078.578,78294.406,78331.336,78524.898,0.019,0.919,-0.145,-2.563,25.543,1.495,93.333,751.000,1.000
77832.891,77828.602,78240.141,78124.266,78146.438,78362.000,78398.930,78592.578,0.021,0.919,-0.148,-2.075,27.283,0.854,93.333,752.000,1.000
77832.891,77828.602,78240.141,78124.266,78146.438,78362.000,78398.930,78592.578,0.021,0.919,-0.148,-2.075,27.283,0.854,93.333,753.000,0.000
77832.891,77828.602,78240.141,78124.266,78146.438,78362.000,78398.930,78592.578,0.021,0.919,-0.148,-2.075,27.283,0.854,93.333,754.000,0.000
77832.891,77828.602,78240.141,78124.266,78146.438,78362.000,78398.930,78592.578,0.021,0.919,-0.148,-2.075,27.283,0.854,93.333,755.000,0.000
77832.891,77828.602,78240.141,78124.266,78146.438,78362.000,78398.930,78592.578,0.021,0.919,-0.148,-2.075,27.283,0.854,93.333,756.000,0.000
77832.891,77828.602,78240.141,78124.266,78146.438,78362.000,78398.930,78592.578,0.021,0.919,-0.148,-2.075,27.283,0.854,93.333,757.000,0.000
77832.891,77828.602,78240.141,78124.266,78146.438,78362.000,78398.930,78592.578,0.021,0.919,-0.148,-2.075,27.283,0.854,93.333,758.000,0.000
77832.891,77828.602,78240.141,78124.266,78146.438,78362.000,78398.930,78592.578,0.021,0.919,-0.148,-2.075,27.283,0.854,93.333,759.000,0.000
77832.891,77828.602,78240.141,78124.266,78146.438,78362.000,78398.930,78592.578,0.021,0.919,-0.148,-2.075,27.283,0.854,93.333,760.000,0.000
77832.891,77828.602,78240.141,78124.266,78146.438,78362.000,78398.930,78592.578,0.021,0.919,-0.148,-2.075,27.283,0.854,93.333,761.000,0.000
77832.891,77828.602,78240.141,78124.266,78146.438,78362.000,78398.930,78592.578,0.021,0.919,-0.148,-2.075,27.283,0.854,93.333,762.000,0.000
77832.891,77828.602,78240.141,78124.266,78146.438,78362.000,78398.930,78592.578,0.021,0.919,-0.148,-2.075,27.283,0.854,93.333,763.000,0.000
77832.891,77828.602,78240.141,78124.266,78146.438,78362.000,78398.930,78592.578,0.021,0.919,-0.148,-2.075,27.283,0.854,93.333,764.000,0.000
77832.891,77828.602,78240.141,78124.266,78146.438,78362.000,78398.930,78592.578,0.021,0.919,-0.148,-2.075,27.283,0.854,93.333,765.000,0.000
77832.891,77828.602,78240.141,78124.266,78146.438,78362.000,78398.930,78592.578,0.021,0.919,-0.148,-2.075,27.283,0.854,93.333,766.000,0.000
77832.891,77828.602,78240.141,78124.266,78146.438,78362.000,78398.930,78592.578,0.021,0.919,-0.148,-2.075,27.283,0.854,93.333,767.000,0.000
77832.891,77828.602,78240.141,78124.266,78146.438,78362.000,78398.930,78592.578,0.021,0.919,-0.148,-2.075,27.283,0.854,93.333,768.000,0.000
77832.891,77828.602,78240.141,78124.266,78146.438,78362.000,78398.930,78592.578,0.021,0.919,-0.148,-2.075,27.283,0.854,93.333,769.000,0.000
77832.891,77828.602,78240.141,78124.266,78146.438,78362.000,78398.930,78592.578,0.021,0.919,-0.148,-2.075,27.283,0.854,93.333,770.000,0.000
77832.891,77828.602,78240.141,78124.266,78146.438,78362.000,78398.930,78592.578,0.021,0.919,-0.148,-2.075,27.283,0.854,93.333,771.000,0.000
77832.891,77828.602,78240.141,78124.266,78146.438,78362.000,78398.930,78592.578,0.021,0.919,-0.148,-2.075,27.283,0.854,93.333,772.000,0.000
77832.891,77828.602,78240.141,78124.266,78146.438,78362.000,78398.930,78592.578,0.021,0.919,-0.148,-2.075,27.283,0.854,93.333,773.000,0.000
77832.891,77828.602,78240.141,78124.266,78146.438,78362.000,78398.930,78592.578,0.021,0.919,-0.148,-2.075,27.283,0.854,93.333,774.000,0.000
77832.891,77828.602,78240.141,78124.266,78146.438,78362.000,78398.930,78592.578,0.021,0.919,-0.148,-2.075,27.283,0.854,93.333,775.000,0.000
77832.891,77828.602,78240.141,78124.266,78146.438,78362.000,78398.930,78592.578,0.021,0.919,-0.148,-2.075,27.283,0.854,93.333,776.000,0.000
77832.891,77828.602,78240.141,78124.266,78146.438,78362.000,78398.930,78592.578,0.021,0.919,-0.148,-2.075,27.283,0.854,93.333,777.000,0.000
77832.891,77828.602,78240.141,78124.266,78146.438,78362.000,78398.930,78592.578,0.021,0.919,-0.148,-2.075,27.283,0.854,93.333,778.000,0.000
77832.891,77828.602,78240.141,78124.266,78146.438,78362.000,78398.930,78592.578,0.021,0.919,-0.148,-2.075,27.283,0.854,93.333,779.000,0.000
77832.891,77828.602,78240.141,78124.266,78146.438,78362.000,78398.930,78592.578,0.021,0.919,-0.148,-2.075,27.283,0.854,93.333,780.000,0.000
77832.891,77828.602,78240.141,78124.266,78146.438,78362.000,78398.930,78592.578,0.021,0.919,-0.148,-2.075,27.283,0.854,93.333,781.000,0.000
77832.891,77828.602,78240.141,78124.266,78146.438,78362.000,78398.930,78592.578,0.021,0.919,-0.148,-2.075,27.283,0.854,93.333,782.000,0.000
77832.891,77828.602,78240.141,78124.266,78146.438,78362.000,78398.930,78592.578,0.021,0.919,-0.148,-2.075,27.283,0.854,93.333,783.000,0.000
77832.891,77828.602,78240.141,78124.266,78146.438,78362.000,78398.930,78592.578,0.021,0.919,-0.148,-2.075,27.283,0.854,93.333,784.000,0.000
77832.891,77828.602,78240.141,78124.266,78146.438,78362.000,78398.930,78592.578,0.021,0.919,-0.148,-2.075,27.283,0.854,93.333,785.000,0.000
77832.891,77828.602,78240.141,78124.266,78146.438,78362.000,78398.930,78592.578,0.021,0.919,-0.148,-2.075,27.283,0.854,93.333,786.000,0.000
77832.891,77828.602,78240.141,78124.266,78146.438,78362.000,78398.930,78592.578,0.021,0.919,-0.148,-2.075,27.283,0.854,93.333,787.000,0.000
77832.891,77828.602,78240.141,78124.266,78146.438,78362.000,78398.930,78592.578,0.021,0.919,-0.148,-2.075,27.283,0.854,93.333,788.000,0.000
77832.891,77828.602,78240.141,78124.266,78146.438,78362.000,78398.930,78592.578,0.021,0.919,-0.148,-2.075,27.283,0.854,93.333,789.000,0.000
77832.891,77828.602,78240.141,78124.266,78146.438,78362.000,78398.930,78592.578,0.021,0.919,-0.148,-2.075,27.283,0.854,93.333,790.000,0.000
79612.805,79609.406,80021.125,79905.258,79926.711,80142.984,80179.016,80374.820,-1.594,0.960,0.171,-61.584,64.026,-39.734,93.333,791.000,1.000
79545.664,79542.266,79953.711,79837.844,79859.656,80075.930,80111.875,80307.680,-1.941,0.859,0.236,-64.484,41.107,-41.199,93.333,792.000,1.000
79453.836,79450.711,79861.984,79746.023,79768.102,79984.023,80020.055,80215.766,-2.256,0.740,0.285,-64.575,11.230,-40.863,93.333,793.000,1.000
79296.391,79293.625,79704.984,79588.844,79610.930,79826.664,79863.414,80058.320,-2.534,0.613,0.335,-61.249,-27.130,-36.652,93.333,794.000,1.000
79112.305,79108.641,79520.445,79404.484,79426.391,79642.219,79679.234,79873.781,-2.745,0.489,0.360,-54.932,-75.104,-26.428,93.333,795.000,1.000
78954.234,78950.391,79362.016,79246.234,79268.320,79483.969,79520.625,79715.445,-2.882,0.354,0.353,-46.417,-131.653,-9.125,93.333,796.000,1.000
78830.227,78826.383,79237.742,79121.961,79143.867,79359.695,79396.352,79591.172,-2.918,0.203,0.294,-34.607,-196.381,15.594,93.333,797.000,1.000
78817.258,78813.414,79225.133,79109.172,79130.992,79347.000,79383.836,79578.117,-2.772,0.040,0.147,-20.111,-264.496,45.807,93.333,798.000,1.000
78911.852,78907.742,79319.461,79203.586,79225.406,79441.320,79478.250,79672.617,-2.392,-0.082,-0.069,-1.526,-326.843,79.803,93.333,799.000,1.000
79134.117,79130.633,79542.086,79426.305,79448.203,79664.031,79700.602,79895.063,-1.870,-0.081,-0.267,21.210,-375.000,112.640,93.333,800.000,1.000
79412.172,79408.508,79820.047,79704.266,79725.992,79942.000,79978.570,80173.117,-1.366,0.053,-0.379,44.495,-408.356,139.191,93.333,801.000,1.000
79412.172,79408.508,79820.047,79704.266,79725.992,79942.000,79978.570,80173.117,-1.366,0.053,-0.379,44.495,-408.356,139.191,93.333,802.000,0.000
79412.172,79408.508,79820.047,79704.266,79725.992,79942.000,79978.570,80173.117,-1.366,0.053,-0.379,44.495,-408.356,139.191,93.333,803.000,0.000
79412.172,79408.508,79820.047,79704.266,79725.992,79942.000,79978.570,80173.117,-1.366,0.053,-0.379,44.495,-408.356,139.191,93.333,804.000,0.000
79412.172,79408.508,79820.047,79704.266,79725.992,79942.000,79978.570,80173.117,-1.366,0.053,-0.379,44.495,-408.356,139.191,93.333,805.000,0.000
79412.172,79408.508,79820.047,79704.266,79725.992,79942.000,79978.570,80173.117,-1.366,0.053,-0.379,44.495,-408.356,139.191,93.333,806.000,0.000
79412.172,79408.508,79820.047,79704.266,79725.992,79942.000,79978.570,80173.117,-1.366,0.053,-0.379,44.495,-408.356,139.191,93.333,807.000,0.000
79412.172,79408.508,79820.047,79704.266,79725.992,79942.000,79978.570,80173.117,-1.366,0.053,-0.379,44.495,-408.356,139.191,93.333,808.000,0.000
79412.172,79408.508,79820.047,79704.266,79725.992,79942.000,79978.570,80173.117,-1.366,0.053,-0.379,44.495,-408.356,139.191,93.333,809.000,0.000
79412.172,79408.508,79820.047,79704.266,79725.992,79942.000,79978.570,80173.117,-1.366,0.053,-0.379,44.495,-408.356,139.191,93.333,810.000,0.000
79412.172,79408.508,79820.047,79704.266,79725.992,79942.000,79978.570,80173.117,-1.366,0.053,-0.379,44.495,-408.356,139.191,93.333,811.000,0.000
79412.172,79408.508,79820.047,79704.266,79725.992,79942.000,79978.570,80173.117,-1.366,0.053,-0.379,44.495,-408.356,139.191,93.333,812.000,0.000
79412.172,79408.508,79820.047,79704.266,79725.992,79942.000,79978.570,80173.117,-1.366,0.053,-0.379,44.495,-408.356,139.191,93.333,813.000,0.000
79412.172,79408.508,79820.047,79704.266,79725.992,79942.000,79978.570,80173.117,-1.366,0.053,-0.379,44.495,-408.356,139.191,93.333,814.000,0.000
79412.172,79408.508,79820.047,79704.266,79725.992,79942.000,79978.570,80173.117,-1.366,0.053,-0.379,44.495,-408.356,139.191,93.333,815.000,0.000
79412.172,79408.508,79820.047,79704.266,79725.992,79942.000,79978.570,80173.117,-1.366,0.053,-0.379,44.495,-408.356,139.191,93.333,816.000,0.000
79412.172,79408.508,79820.047,79704.266,79725.992,79942.000,79978.570,80173.117,-1.366,0.053,-0.379,44.495,-408.356,139.191,93.333,817.000,0.000
79412.172,79408.508,79820.047,79704.266,79725.992,79942.000,79978.570,80173.117,-1.366,0.053,-0.379,44.495,-408.356,139.191,93.333,818.000,0.000
79412.172,79408.508,79820.047,79704.266,79725.992,79942.000,79978.570,80173.117,-1.366,0.053,-0.379,44.495,-408.356,139.191,93.333,819.000,0.000
79412.172,79408.508,79820.047,79704.266,79725.992,79942.000,79978.570,80173.117,-1.366,0.053,-0.379,44.495,-408.356,139.191,93.333,820.000,0.000
79412.172,79408.508,79820.047,79704.266,79725.992,79942.000,79978.570,80173.117,-1.366,0.053,-0.379,44.495,-408.356,139.191,93.333,821.000,0.000
79412.172,79408.508,79820.047,79704.266,79725.992,79942.000,79978.570,80173.117,-1.366,0.053,-0.379,44.495,-408.356,139.191,93.333,822.000,0.000
79412.172,79408.508,79820.047,79704.266,79725.992,79942.000,79978.570,80173.117,-1.366,0.053,-0.379,44.495,-408.356,139.191,93.333,823.000,0.000
79412.172,79408.508,79820.047,79704.266,79725.992,79942.000,79978.570,80173.117,-1.366,0.053,-0.379,44.495,-408.356,139.191,93.333,824.000,0.000
79412.172,79408.508,79820.047,79704.266,79725.992,79942.000,79978.570,80173.117,-1.366,0.053,-0.379,44.495,-408.356,139.191,93.333,825.000,0.000
79412.172,79408.508,79820.047,79704.266,79725.992,79942.000,79978.570,80173.117,-1.366,0.053,-0.379,44.495,-408.356,139.191,93.333,826.000,0.000
79412.172,79408.508,79820.047,79704.266,79725.992,79942.000,79978.570,80173.117,-1.366,0.053,-0.379,44.495,-408.356,139.191,93.333,827.000,0.000
79412.172,79408.508,79820.047,79704.266,79725.992,79942.000,79978.570,80173.117,-1.366,0.053,-0.379,44.495,-408.356,139.191,93.333,828.000,0.000
79412.172,79408.508,79820.047,79704.266,79725.992,79942.000,79978.570,80173.117,-1.366,0.053,-0.379,44.495,-408.356,139.191,93.333,829.000,0.000
79412.172,79408.508,79820.047,79704.266,79725.992,79942.000,79978.570,80173.117,-1.366,0.053,-0.379,44.495,-408.356,139.191,93.333,830.000,0.000
79412.172,79408.508,79820.047,79704.266,79725.992,79942.000,79978.570,80173.117,-1.366,0.053,-0.379,44.495,-408.356,139.191,93.333,831.000,0.000
79412.172,79408.508,79820.047,79704.266,79725.992,79942.000,79978.570,80173.117,-1.366,0.053,-0.379,44.495,-408.356,139.191,93.333,832.000,0.000
79412.172,79408.508,79820.047,79704.266,79725.992,79942.000,79978.570,80173.117,-1.366,0.053,-0.379,44.495,-408.356,139.191,93.333,833.000,0.000
79412.172,79408.508,79820.047,79704.266,79725.992,79942.000,79978.570,80173.117,-1.366,0.053,-0.379,44.495,-408.356,139.191,93.333,834.000,0.000
79412.172,79408.508,79820.047,79704.266,79725.992,79942.000,79978.570,80173.117,-1.366,0.053,-0.379,44.495,-408.356,139.191,93.333,835.000,0.000
79412.172,79408.508,79820.047,79704.266,79725.992,79942.000,79978.570,80173.117,-1.366,0.053,-0.379,44.495,-408.356,139.191,93.333,836.000,0.000
85824.086,85825.430,86235.266,86119.398,86138.172,86356.773,86392.539,86591.648,-0.358,0.858,-0.191,54.749,-84.015,-11.932,93.333,837.000,1.000
85839.734,85841.609,86251.008,86135.133,86154.445,86372.688,86408.539,86607.648,-0.233,0.912,-0.221,49.500,-77.972,1.312,93.333,838.000,1.000
86003.523,86005.313,86414.797,86299.109,86318.328,86536.570,86572.242,86771.352,-0.092,0.921,-0.218,43.762,-66.895,11.383,93.333,839.000,1.000
86257.977,86259.766,86669.695,86553.828,86573.141,86791.383,86827.055,87026.523,0.015,0.922,-0.189,38.727,-49.957,15.747,93.333,840.000,1.000
86581.539,86583.602,86993.531,86877.305,86896.438,87115.031,87150.352,87350.352,0.056,0.942,-0.129,35.767,-32.715,16.632,93.333,841.000,1.000
87159.023,87161.438,87570.922,87455.047,87473.469,87692.875,87728.102,87928.188,0.046,0.993,-0.074,31.067,-21.912,15.289,93.333,842.000,1.000
87736.500,87739.453,88149.117,88033.336,88051.305,88270.891,88306.203,88506.656,0.036,1.025,-0.065,22.766,-20.020,11.932,93.333,843.000,1.000
88189.352,88192.922,88602.227,88486.266,88504.688,88723.734,88759.141,88959.586,0.034,1.018,-0.063,15.747,-25.238,7.507,93.333,844.000,1.000
88623.688,88627.711,89036.656,88920.695,88938.578,89158.344,89193.656,89394.469,0.062,1.000,-0.077,11.810,-32.776,2.258,93.333,845.000,1.000
89106.930,89111.133,89520.172,89404.477,89421.820,89641.672,89676.727,89878.070,0.114,0.984,-0.106,10.956,-35.889,-2.502,93.333,846.000,1.000
89495.852,89500.594,89909.359,89793.664,89811.016,90030.867,90065.820,90267.617,0.146,0.991,-0.108,12.756,-32.166,-5.463,93.333,847.000,1.000
89827.109,89832.109,90240.789,90124.828,90141.820,90362.297,90397.078,90599.227,0.149,1.007,-0.115,13.214,-24.475,-8.057,93.333,848.000,1.000
89827.109,89832.109,90240.789,90124.828,90141.820,90362.297,90397.078,90599.227,0.149,1.007,-0.115,13.214,-24.475,-8.057,93.333,849.000,0.000
89827.109,89832.109,90240.789,90124.828,90141.820,90362.297,90397.078,90599.227,0.149,1.007,-0.115,13.214,-24.475,-8.057,93.333,850.000,0.000
89827.109,89832.109,90240.789,90124.828,90141.820,90362.297,90397.078,90599.227,0.149,1.007,-0.115,13.214,-24.475,-8.057,93.333,851.000,0.000
89827.109,89832.109,90240.789,90124.828,90141.820,90362.297,90397.078,90599.227,0.149,1.007,-0.115,13.214,-24.475,-8.057,93.333,852.000,0.000
89827.109,89832.109,90240.789,90124.828,90141.820,90362.297,90397.078,90599.227,0.149,1.007,-0.115,13.214,-24.475,-8.057,93.333,853.000,0.000
89827.109,89832.109,90240.789,90124.828,90141.820,90362.297,90397.078,90599.227,0.149,1.007,-0.115,13.214,-24.475,-8.057,93.333,854.000,0.000
89827.109,89832.109,90240.789,90124.828,90141.820,90362.297,90397.078,90599.227,0.149,1.007,-0.115,13.214,-24.475,-8.057,93.333,855.000,0.000
89827.109,89832.109,90240.789,90124.828,90141.820,90362.297,90397.078,90599.227,0.149,1.007,-0.115,13.214,-24.475,-8.057,93.333,856.000,0.000
89827.109,89832.109,90240.789,90124.828,90141.820,90362.297,90397.078,90599.227,0.149,1.007,-0.115,13.214,-24.475,-8.057,93.333,857.000,0.000
89827.109,89832.109,90240.789,90124.828,90141.820,90362.297,90397.078,90599.227,0.149,1.007,-0.115,13.214,-24.475,-8.057,93.333,858.000,0.000
89827.109,89832.109,90240.789,90124.828,90141.820,90362.297,90397.078,90599.227,0.149,1.007,-0.115,13.214,-24.475,-8.057,93.333,859.000,0.000
89827.109,89832.109,90240.789,90124.828,90141.820,90362.297,90397.078,90599.227,0.149,1.007,-0.115,13.214,-24.475,-8.057,93.333,860.000,0.000
89827.109,89832.109,90240.789,90124.828,90141.820,90362.297,90397.078,90599.227,0.149,1.007,-0.115,13.214,-24.475,-8.057,93.333,861.000,0.000
89827.109,89832.109,90240.789,90124.828,90141.820,90362.297,90397.078,90599.227,0.149,1.007,-0.115,13.214,-24.475,-8.057,93.333,862.000,0.000
89827.109,89832.109,90240.789,90124.828,90141.820,90362.297,90397.078,90599.227,0.149,1.007,-0.115,13.214,-24.475,-8.057,93.333,863.000,0.000
89827.109,89832.109,90240.789,90124.828,90141.820,90362.297,90397.078,90599.227,0.149,1.007,-0.115,13.214,-24.475,-8.057,93.333,864.000,0.000
89827.109,89832.109,90240.789,90124.828,90141.820,90362.297,90397.078,90599.227,0.149,1.007,-0.115,13.214,-24.475,-8.057,93.333,865.000,0.000
89827.109,89832.109,90240.789,90124.828,90141.820,90362.297,90397.078,90599.227,0.149,1.007,-0.115,13.214,-24.475,-8.057,93.333,866.000,0.000
89827.109,89832.109,90240.789,90124.828,90141.820,90362.297,90397.078,90599.227,0.149,1.007,-0.115,13.214,-24.475,-8.057,93.333,867.000,0.000
89827.109,89832.109,90240.789,90124.828,90141.820,90362.297,90397.078,90599.227,0.149,1.007,-0.115,13.214,-24.475,-8.057,93.333,868.000,0.000
89827.109,89832.109,90240.789,90124.828,90141.820,90362.297,90397.078,90599.227,0.149,1.007,-0.115,13.214,-24.475,-8.057,93.333,869.000,0.000
89827.109,89832.109,90240.789,90124.828,90141.820,90362.297,90397.078,90599.227,0.149,1.007,-0.115,13.214,-24.475,-8.057,93.333,870.000,0.000
89827.109,89832.109,90240.789,90124.828,90141.820,90362.297,90397.078,90599.227,0.149,1.007,-0.115,13.214,-24.475,-8.057,93.333,871.000,0.000
